Data from mixed_try1_USB4F045381__34__00056.txt Node

Date: Thu Apr 03 19:37:53 EDT 2025
User: mmckonesweet
Spectrometer: USB4F04538
Trigger mode: 4
Integration Time (sec): 2.700000E-3
Scans to average: 1
Electric dark correction enabled: true
Nonlinearity correction enabled: true
Boxcar width: 0
XAxis mode: Wavelengths
Number of Pixels in Spectrum: 3648
>>>>>Begin Spectral Data<<<<<
345.52	33.01848
345.736	33.01848
345.952	33.01848
346.168	1.40492
346.384	3.51233
346.6	22.48004
346.816	-68.12563
347.032	33.01848
347.248	45.6654
347.464	18.26482
347.68	18.26482
347.896	-0.70246
348.112	-40.73804
348.328	-25.98912
348.544	-32.31023
348.76	-15.45344
348.975	45.6654
349.191	7.72721
349.407	43.55752
349.623	9.83468
349.839	62.52924
350.055	-9.13173
350.27	14.04971
350.486	-44.95179
350.702	58.31314
350.918	79.39455
351.133	33.01848
351.349	9.83468
351.565	-23.88203
351.781	37.23403
351.996	33.01848
352.212	-0.70246
352.428	-13.34623
352.644	-49.16544
352.859	-21.77492
353.075	-7.02445
353.291	9.83468
353.506	11.94218
353.722	-7.02445
353.938	45.6654
354.153	11.94218
354.369	33.01848
354.584	7.72721
354.8	39.34183
355.016	7.72721
355.231	24.58768
355.447	75.17808
355.662	-57.59244
355.878	24.58768
356.093	70.96171
356.309	-59.69913
356.524	16.15725
356.74	33.01848
356.955	45.6654
357.171	-7.02445
357.386	24.58768
357.602	-17.56062
357.817	-7.02445
358.033	-0.70246
358.248	49.88122
358.464	-9.13173
358.679	-59.69913
358.895	-63.91243
359.11	-76.55171
359.325	-4.91714
359.541	3.51233
359.756	45.6654
359.972	-13.34623
360.187	18.26482
360.402	11.94218
360.618	-15.45344
360.833	-9.13173
361.048	-36.52418
361.264	49.88122
361.479	-68.12563
361.694	45.6654
361.909	-9.13173
362.125	9.83468
362.34	-21.77492
362.555	-2.80981
362.77	-9.13173
362.986	-0.70246
363.201	22.48004
363.416	-59.69913
363.631	-34.41722
363.847	-4.91714
364.062	-4.91714
364.277	83.6111
364.492	18.26482
364.707	-34.41722
364.922	33.01848
365.138	102.58669
365.353	-2.80981
365.568	-11.23899
365.783	-34.41722
365.998	30.91075
366.213	18.26482
366.428	104.6952
366.643	45.6654
366.858	-42.84492
367.073	26.69535
367.288	16.15725
367.503	-93.40265
367.718	-25.98912
367.933	102.58669
368.148	7.72721
368.363	-59.69913
368.578	5.61975
368.793	-40.73804
369.008	-0.70246
369.223	18.26482
369.438	-13.34623
369.653	20.37242
369.868	9.83468
370.083	9.83468
370.298	68.85356
370.513	49.88122
370.728	28.80304
370.943	-34.41722
371.157	7.72721
371.372	35.12624
371.587	33.01848
371.802	75.17808
372.017	9.83468
372.232	-34.41722
372.446	16.15725
372.661	28.80304
372.876	18.26482
373.091	68.85356
373.306	5.61975
373.52	-51.27223
373.735	-23.88203
373.95	18.26482
374.165	54.09713
374.379	7.72721
374.594	24.58768
374.809	-34.41722
375.023	-74.44523
375.238	-28.09618
375.453	43.55752
375.667	3.51233
375.882	102.58669
376.097	11.94218
376.311	26.69535
376.526	92.04447
376.741	11.94218
376.955	16.15725
377.17	51.98916
377.384	45.6654
377.599	-4.91714
377.813	24.58768
378.028	33.01848
378.242	49.88122
378.457	43.55752
378.672	-84.97739
378.886	-9.13173
379.101	37.23403
379.315	43.55752
379.53	58.31314
379.744	51.98916
379.958	39.34183
380.173	-4.91714
380.387	5.61975
380.602	-9.13173
380.816	-9.13173
381.031	-42.84492
381.245	41.44967
381.459	-17.56062
381.674	-42.84492
381.888	-49.16544
382.103	24.58768
382.317	7.72721
382.531	1.40492
382.746	73.06989
382.96	-34.41722
383.174	11.94218
383.388	-25.98912
383.603	9.83468
383.817	68.85356
384.031	20.37242
384.246	16.15725
384.46	3.51233
384.674	28.80304
384.888	-51.27223
385.103	-34.41722
385.317	37.23403
385.531	60.42118
385.745	-25.98912
385.959	49.88122
386.174	35.12624
386.388	58.31314
386.602	5.61975
386.816	-17.56062
387.03	7.72721
387.244	-19.66778
387.458	-4.91714
387.672	-17.56062
387.887	7.72721
388.101	-0.70246
388.315	20.37242
388.529	7.72721
388.743	77.2863
388.957	45.6654
389.171	43.55752
389.385	26.69535
389.599	33.01848
389.813	56.20513
390.027	-4.91714
390.241	70.96171
390.455	113.12946
390.669	-40.73804
390.883	41.44967
391.097	-19.66778
391.311	49.88122
391.525	58.31314
391.738	-72.33872
391.952	20.37242
392.166	11.94218
392.38	1.40492
392.594	43.55752
392.808	-38.63112
393.022	1.40492
393.236	14.04971
393.449	-32.31023
393.663	-17.56062
393.877	43.55752
394.091	9.83468
394.305	60.42118
394.518	-32.31023
394.732	-44.95179
394.946	-51.27223
395.16	-15.45344
395.373	11.94218
395.587	39.34183
395.801	62.52924
396.015	-28.09618
396.228	51.98916
396.442	-34.41722
396.656	51.98916
396.869	20.37242
397.083	49.88122
397.297	39.34183
397.51	7.72721
397.724	47.77329
397.938	134.21663
398.151	41.44967
398.365	-21.77492
398.578	-17.56062
398.792	66.74543
399.005	66.74543
399.219	-9.13173
399.433	-23.88203
399.646	-19.66778
399.86	-36.52418
400.073	-15.45344
400.287	7.72721
400.5	75.17808
400.714	7.72721
400.927	11.94218
401.141	49.88122
401.354	41.44967
401.567	-21.77492
401.781	33.01848
401.994	-47.05863
402.208	28.80304
402.421	60.42118
402.635	20.37242
402.848	41.44967
403.061	62.52924
403.275	41.44967
403.488	-7.02445
403.701	58.31314
403.915	33.01848
404.128	9.83468
404.341	-42.84492
404.555	117.34672
404.768	62.52924
404.981	-23.88203
405.195	33.01848
405.408	83.6111
405.621	7.72721
405.834	-32.31023
406.048	-13.34623
406.261	-72.33872
406.474	24.58768
406.687	140.5432
406.9	85.71941
407.114	47.77329
407.327	-17.56062
407.54	3.51233
407.753	66.74543
407.966	60.42118
408.179	28.80304
408.392	7.72721
408.605	24.58768
408.819	11.94218
409.032	-4.91714
409.245	14.04971
409.458	62.52924
409.671	-17.56062
409.884	9.83468
410.097	66.74543
410.31	49.88122
410.523	26.69535
410.736	28.80304
410.949	33.01848
411.162	102.58669
411.375	66.74543
411.588	70.96171
411.801	-42.84492
412.014	39.34183
412.227	20.37242
412.44	66.74543
412.653	-9.13173
412.865	-25.98912
413.078	24.58768
413.291	28.80304
413.504	41.44967
413.717	-25.98912
413.93	58.31314
414.143	41.44967
414.356	1.40492
414.568	35.12624
414.781	24.58768
414.994	49.88122
415.207	-25.98912
415.42	49.88122
415.632	60.42118
415.845	41.44967
416.058	33.01848
416.271	33.01848
416.483	24.58768
416.696	77.2863
416.909	7.72721
417.121	83.6111
417.334	18.26482
417.547	28.80304
417.759	92.04447
417.972	-61.80579
418.185	-21.77492
418.397	9.83468
418.61	60.42118
418.823	20.37242
419.035	-9.13173
419.248	43.55752
419.46	37.23403
419.673	9.83468
419.885	51.98916
420.098	161.63315
420.311	87.82774
420.523	41.44967
420.736	68.85356
420.948	41.44967
421.161	35.12624
421.373	41.44967
421.586	49.88122
421.798	96.26129
422.01	77.2863
422.223	45.6654
422.435	66.74543
422.648	41.44967
422.86	-4.91714
423.073	-49.16544
423.285	30.91075
423.497	-25.98912
423.71	37.23403
423.922	18.26482
424.134	20.37242
424.347	33.01848
424.559	-53.37899
424.771	20.37242
424.984	62.52924
425.196	11.94218
425.408	3.51233
425.621	24.58768
425.833	16.15725
426.045	1.40492
426.257	54.09713
426.47	68.85356
426.682	16.15725
426.894	68.85356
427.106	-7.02445
427.318	102.58669
427.531	45.6654
427.743	-4.91714
427.955	20.37242
428.167	127.89025
428.379	-28.09618
428.591	51.98916
428.804	28.80304
429.016	58.31314
429.228	77.2863
429.44	98.36974
429.652	104.6952
429.864	16.15725
430.076	58.31314
430.288	94.15287
430.5	100.4782
430.712	20.37242
430.924	111.02086
431.136	83.6111
431.348	62.52924
431.56	85.71941
431.772	24.58768
431.984	66.74543
432.196	1.40492
432.408	20.37242
432.62	87.82774
432.832	49.88122
433.044	62.52924
433.256	54.09713
433.468	3.51233
433.679	85.71941
433.891	85.71941
434.103	104.6952
434.315	75.17808
434.527	81.50281
434.739	45.6654
434.95	-15.45344
435.162	68.85356
435.374	136.32547
435.586	66.74543
435.798	37.23403
436.009	117.34672
436.221	75.17808
436.433	30.91075
436.645	51.98916
436.856	119.45538
437.068	75.17808
437.28	79.39455
437.491	58.31314
437.703	81.50281
437.915	49.88122
438.126	94.15287
438.338	87.82774
438.55	73.06989
438.761	129.99903
438.973	70.96171
439.184	172.17891
439.396	134.21663
439.608	62.52924
439.819	35.12624
440.031	49.88122
440.242	64.63732
440.454	138.43433
440.665	178.50662
440.877	51.98916
441.088	18.26482
441.3	102.58669
441.511	77.2863
441.723	125.7815
441.934	113.12946
442.146	68.85356
442.357	98.36974
442.569	113.12946
442.78	108.91229
442.991	68.85356
443.203	121.56407
443.414	117.34672
443.626	151.08791
443.837	92.04447
444.048	102.58669
444.26	201.70978
444.471	60.42118
444.682	170.06972
444.894	85.71941
445.105	64.63732
445.316	161.63315
445.528	178.50662
445.739	108.91229
445.95	151.08791
446.161	136.32547
446.373	142.6521
446.584	100.4782
446.795	111.02086
447.006	108.91229
447.217	111.02086
447.429	138.43433
447.64	121.56407
447.851	140.5432
448.062	174.28813
448.273	146.86997
448.484	138.43433
448.695	75.17808
448.907	159.52406
449.118	140.5432
449.329	125.7815
449.54	68.85356
449.751	100.4782
449.962	113.12946
450.173	121.56407
450.384	191.16258
450.595	151.08791
450.806	214.36707
451.017	127.89025
451.228	201.70978
451.439	227.02509
451.65	193.27198
451.861	125.7815
452.072	178.50662
452.283	203.81928
452.494	222.80567
452.705	210.14789
452.915	218.58633
453.126	210.14789
453.337	210.14789
453.548	197.49084
453.759	286.10501
453.97	170.06972
454.181	239.6838
454.391	231.24458
454.602	237.57397
454.813	227.02509
455.024	227.02509
455.235	174.28813
455.445	273.44377
455.656	260.78321
455.867	239.6838
456.078	290.32557
456.288	243.90353
456.499	277.66411
456.71	313.53995
456.921	210.14789
457.131	235.46415
457.342	311.42946
457.553	237.57397
457.763	328.31388
457.974	286.10501
458.184	262.89326
458.395	332.53516
458.606	286.10501
458.816	446.5354
459.027	315.65046
459.237	336.75651
459.448	273.44377
459.659	448.64696
459.869	353.64262
460.08	328.31388
460.29	463.42832
460.501	355.75346
460.711	427.53205
460.922	467.65171
461.132	471.87515
461.343	423.30926
461.553	400.08505
461.764	429.64347
461.974	429.64347
462.184	488.76953
462.395	556.35631
462.605	541.57047
462.816	486.65768
463.026	480.32222
463.236	431.75491
463.447	585.92998
463.657	632.40802
463.867	700.02295
464.078	497.21707
464.288	604.94298
464.498	721.15502
464.709	573.25523
464.919	640.85922
465.129	704.24928
465.339	858.53818
465.55	697.90981
465.76	664.10102
465.97	735.9481
466.18	809.92106
466.391	974.81412
466.601	869.10773
466.811	976.92843
467.021	871.22166
467.231	1055.16249
467.441	778.21687
467.651	890.24746
467.862	940.98604
468.072	1184.15878
468.282	1046.70436
468.492	987.5001
468.702	1097.45443
468.912	1232.80063
469.122	1114.37177
469.332	1234.91554
469.542	1088.99587
469.752	1344.89378
469.962	1308.93873
470.172	1518.32733
470.382	1385.07932
470.592	1393.53948
470.802	1427.38022
471.012	1501.40699
471.222	1431.61033
471.432	1562.74293
471.642	1725.59295
471.852	1784.80677
472.062	1702.32962
472.272	1953.96967
472.482	1918.02535
472.691	1979.3411
472.901	1994.14069
473.111	1964.54121
473.321	2205.52543
473.531	2104.07014
473.741	2159.0274
473.95	2300.62188
474.16	2027.96713
474.37	2425.27452
474.58	2290.05653
474.79	2507.65196
474.999	2509.76398
475.209	2317.52596
475.419	2511.87599
475.628	2771.56063
475.838	2655.46488
476.048	2625.90704
476.258	2625.90704
476.467	2938.24418
476.677	3077.42861
476.886	3195.47105
477.096	3178.61095
477.306	3050.01877
477.515	3043.69305
477.725	3117.48436
477.935	3294.50267
478.144	3385.0731
478.354	3187.04114
478.563	3555.59351
478.773	3627.13416
478.982	3589.26238
479.192	3650.27502
479.401	3698.65302
479.611	3606.09503
479.82	3784.86682
480.03	3761.73949
480.239	4051.70764
480.449	4070.60516
480.658	4186.05333
480.868	4207.03707
481.077	4379.02311
481.287	4110.49441
481.496	4490.10725
481.705	4370.63691
481.915	4733.0177
482.124	4584.37541
482.333	4772.77596
482.543	4707.90302
482.752	4898.27445
482.961	4942.17948
483.171	5082.18955
483.38	4988.16436
483.589	5201.22072
483.799	5098.90024
484.008	5382.75372
484.217	4967.26353
484.426	5332.69335
484.636	5453.64942
484.845	5659.92609
485.054	5247.14234
485.263	5707.81587
485.472	5451.56464
485.682	5920.04619
485.891	5568.27608
486.1	5926.28454
486.309	5915.88717
486.518	5944.99832
486.727	6057.24093
486.936	6132.03119
487.146	6156.95451
487.355	6258.68965
487.564	6252.46259
487.773	6665.0702
487.982	6441.25665
488.191	6621.572
488.4	6399.78001
488.609	6754.1063
488.818	6756.17641
489.027	6824.47698
489.236	6944.46038
489.445	7035.43153
489.654	6894.82133
489.863	7134.62324
490.072	6927.91548
490.281	7341.10833
490.49	7272.99263
490.698	7128.42526
490.907	7196.59197
491.116	7510.26272
491.325	7464.89414
491.534	7730.77134
491.743	7547.37471
491.952	7739.00995
492.16	7714.29311
492.369	8043.6049
492.578	7879.01514
492.787	8086.78812
492.996	7918.11709
493.204	8064.16945
493.413	8033.32186
493.622	8263.54153
493.831	7975.72748
494.039	8150.51855
494.248	8419.62099
494.457	8370.34487
494.665	8360.07761
494.874	8472.99095
495.083	8442.20217
495.291	8618.66652
495.5	8667.88757
495.709	8741.69914
495.917	8643.27838
496.126	8743.74912
496.335	9094.03159
496.543	8952.75204
496.752	8973.23251
496.96	8872.86125
497.169	9034.66336
497.377	8995.75899
497.586	9012.14055
497.794	9449.94155
498.003	9141.10641
498.211	9447.89752
498.42	9423.3679
498.628	9701.23613
498.837	9468.3371
499.045	9609.32666
499.254	9535.77631
499.462	9721.65621
499.671	9695.1098
499.879	9899.2472
500.087	9862.51351
500.296	9952.29857
500.504	9899.2472
500.713	10099.15915
500.921	9876.7994
501.129	9948.21804
501.338	9925.77412
501.546	10374.32834
501.754	10417.11048
501.962	10207.21816
502.171	10272.44265
502.379	10439.51788
502.587	10390.62698
502.795	10529.13191
503.004	10166.44575
503.212	10712.35769
503.42	10647.22218
503.628	10753.06112
503.837	10582.07411
504.045	10716.42825
504.253	10738.81546
504.461	10928.0322
504.669	10651.29351
504.877	11058.18857
505.085	10944.30426
505.294	10936.16832
505.502	10948.37215
505.71	11216.75635
505.918	11039.88808
506.126	11237.08091
506.334	11050.05513
506.542	11361.03856
506.75	11131.38177
506.958	11257.40444
507.166	11574.32245
507.374	11493.0839
507.582	11466.67811
507.79	11667.72849
507.998	11440.27069
508.206	11580.41474
508.414	11249.27515
508.622	11822.01019
508.83	11566.19927
509.037	11773.29508
509.245	11361.03856
509.453	11813.89135
509.661	11710.36402
509.869	11953.92264
510.077	11803.74261
510.285	11911.30859
510.492	12041.16891
510.7	12024.93816
510.908	12134.48615
511.116	12130.42921
511.324	12093.91543
511.531	12199.39305
511.739	12089.85819
511.947	12229.81556
512.155	12235.89986
512.362	12426.50932
512.57	12073.62893
512.778	12440.70123
512.985	12507.60159
513.193	12592.7374
513.401	12544.08973
513.608	12613.00621
513.816	12475.16594
514.024	12414.34457
514.231	12341.35097
514.439	12617.0599
514.646	12665.70227
514.854	12935.20194
515.061	12432.59161
515.269	12799.4513
515.477	12854.1597
515.684	12726.50041
515.892	12756.89751
516.099	13129.66998
516.307	12998.00392
516.514	13283.59305
516.722	13087.13395
516.929	13271.44215
517.136	13257.26591
517.344	13083.08279
517.551	13070.92919
517.759	13514.43219
517.966	13255.24072
518.173	13362.57017
518.381	13372.69499
518.588	13644.00474
518.796	13226.88754
519.003	13767.49084
519.21	13508.35812
519.418	13524.55557
519.625	13633.88239
519.832	13777.61214
520.039	13692.59085
520.247	13994.19091
520.454	13801.90295
520.661	13977.99916
520.868	13905.13426
521.076	14378.70372
521.283	13907.15833
521.49	14131.81463
521.697	14279.54667
521.904	14079.19505
522.112	14190.50397
522.319	14844.09187
522.526	14220.85986
522.733	14556.77238
522.94	14417.15131
523.147	14619.49873
523.354	14457.62186
523.561	14860.2784
523.768	14593.19427
523.975	14657.94338
524.183	14433.3396
524.39	14611.40507
524.597	14864.32503
524.804	15003.93246
525.011	14781.36867
525.218	14963.46675
525.425	14831.95195
525.632	14971.5599
525.838	14965.49004
526.045	14908.83778
526.252	15038.32822
526.459	15208.2831
526.666	15242.67873
526.873	15406.56467
527.08	15264.93475
527.287	15412.63457
527.494	15173.8875
527.701	15428.82097
527.907	15495.59022
528.114	15546.17341
528.321	15736.37045
528.528	15795.04991
528.735	15612.94388
528.941	15950.85863
529.148	15706.01934
529.355	15910.38813
529.562	15525.94009
529.768	15811.2375
529.975	15621.03733
530.182	15908.36462
530.388	15449.05401
530.595	15920.50571
530.802	16199.76483
531.008	16248.33472
531.215	16189.64623
531.422	16331.31064
531.628	16286.7866
531.835	16357.62073
532.042	16572.16174
532.248	16804.9464
532.455	16543.82479
532.661	16685.51389
532.868	16545.84884
533.074	16628.83693
533.281	16867.70249
533.487	17015.49271
533.694	16968.92715
533.9	17149.12364
534.107	16859.60479
534.313	16995.24664
534.52	17058.01034
534.726	17116.72715
534.933	16952.73077
535.139	17264.54211
535.345	16942.60811
535.552	17205.81926
535.758	17185.57057
535.965	17234.16791
536.171	17477.18046
536.377	17661.49503
536.584	17313.14221
536.79	17335.41783
536.996	17631.11166
537.203	17612.88199
537.409	17544.01673
537.615	17550.09292
537.821	17633.13719
538.028	17793.16497
538.234	17689.85351
538.44	18163.94505
538.646	17853.94054
538.853	17924.84929
539.059	17939.03156
539.265	17995.76234
539.471	17987.65777
539.677	18165.9715
539.883	18078.83744
540.09	18230.81983
540.296	18082.89004
540.502	18317.96575
540.708	18338.23323
540.914	18506.46794
541.12	18520.65761
541.326	18579.44541
541.532	18619.99062
541.738	18567.28215
541.944	18770.0215
542.15	18849.10054
542.356	18765.96633
542.562	18774.07669
542.768	18733.52552
542.974	18986.99648
543.18	18982.94045
543.386	18918.04619
543.592	19337.90459
543.798	19343.99079
544.004	19530.65222
544.21	19593.55693
544.415	18840.98959
544.621	19341.96205
544.827	19204.01768
545.033	19573.26465
545.239	19297.33091
545.445	19609.79106
545.651	19546.88531
545.856	19471.80949
546.062	19453.54867
546.268	19755.91024
546.474	19583.41074
546.679	19368.33594
546.885	19486.01259
547.091	19680.81851
547.297	19260.816
547.502	19607.76178
547.708	19628.05477
547.914	19707.20144
548.119	19932.49993
548.325	19867.5437
548.531	19672.70083
548.736	20005.58083
548.942	19897.9914
549.147	19593.55693
549.353	20064.45551
549.559	20145.66778
549.764	20243.13139
549.97	20253.28441
550.175	20346.69709
550.381	20281.71341
550.586	20127.39444
550.792	20271.5601
550.997	19869.57352
551.203	20377.15966
551.408	20728.56276
551.614	20696.05782
551.819	20608.70605
552.025	20667.61686
552.23	21043.50926
552.435	20740.75239
552.641	21297.57005
552.846	21179.67795
553.052	20712.31016
553.257	21234.55706
553.462	21031.31595
553.668	21293.50458
553.873	21043.50926
554.078	21527.29519
554.283	21421.57463
554.489	21423.60762
554.694	21364.65264
554.899	21360.58691
555.105	21279.27556
555.31	21578.1262
555.515	21289.43912
555.72	21352.45548
555.925	21179.67795
556.131	21685.89608
556.336	21508.99663
556.541	21535.42799
556.746	21706.23126
556.951	21934.01169
557.156	21330.0944
557.361	21915.70612
557.567	22021.4759
557.772	22015.37351
557.977	21980.794
558.182	22277.80641
558.387	22220.83896
558.592	22562.68652
558.797	21944.18159
559.002	21940.11362
559.207	21846.55455
559.412	21948.24957
559.617	21952.31757
559.822	22424.30732
560.027	22241.18414
560.232	22178.11528
560.437	22204.56308
560.642	21997.06657
560.847	22379.54115
561.051	22359.19347
561.256	22186.253
561.461	22206.59755
561.666	22511.80989
561.871	22530.12522
562.076	22678.69352
562.281	22990.13646
562.485	22355.12398
562.69	22802.85395
562.895	22599.31907
563.1	22792.67638
563.305	22304.25656
563.509	22788.60538
563.714	22684.79947
563.919	22741.78983
564.123	22686.83479
564.328	22743.82525
564.533	22672.5876
564.737	22271.70261
564.942	22876.13499
565.147	22804.88948
565.351	22737.719
565.556	22933.1344
565.761	23055.28489
565.965	23220.20696
566.17	22892.42026
566.374	23104.14845
566.579	23153.0139
566.784	22914.81287
566.988	23144.86953
567.193	23379.04087
567.397	23122.47277
567.602	23556.22437
567.806	23207.98978
568.011	23466.61139
568.215	23340.34877
568.42	23287.40355
568.624	23269.07686
568.828	23429.95326
569.033	23218.17076
569.237	23880.10182
569.442	23827.13562
569.646	23635.65902
569.85	23947.33096
570.055	24104.21096
570.259	24039.01206
570.463	24418.01965
570.668	23924.9209
570.872	23821.02426
571.076	24112.36102
571.281	24026.78758
571.485	23988.07741
571.689	23704.91348
571.893	23735.46802
572.098	24208.12755
572.302	24452.66472
572.506	24151.07442
572.71	24177.56311
572.914	24348.73178
573.119	24098.09844
573.323	24450.62675
573.527	24126.62374
573.731	24485.27252
573.935	24627.9393
574.139	24511.76684
574.343	23926.95817
574.547	24462.85459
574.751	24623.86294
574.955	24477.12051
575.159	24568.83299
575.364	24613.67207
575.568	24583.09984
575.772	24615.71024
575.976	24750.23481
576.18	24517.88098
576.383	24870.50056
576.587	24809.34745
576.791	24595.32866
576.995	24475.08251
577.199	24933.69433
577.403	24888.84691
577.607	25023.39255
577.811	25200.76325
578.015	25000.96758
578.219	25068.24331
578.422	24972.42711
578.626	25251.73492
578.83	24892.9239
579.034	25463.79138
579.238	24994.85172
579.442	25473.98697
579.645	25398.54083
579.849	25400.57987
580.053	25524.96568
580.257	25402.61892
580.46	25471.94785
580.664	25624.8876
580.868	25590.22027
581.071	25598.37724
581.275	25661.59481
581.479	25771.7202
581.682	25380.18949
581.886	25270.08506
582.09	25608.5735
582.293	25924.68129
582.497	25900.20681
582.7	25955.27475
582.904	26069.49393
583.107	25806.39046
583.311	25559.63193
583.515	26124.56588
583.718	25749.2868
583.922	26295.90885
584.125	25741.12925
584.329	25883.89064
584.532	26503.9839
584.735	26340.78635
584.939	25839.02179
585.142	26051.1369
585.346	26336.70654
585.549	26200.0369
585.753	26487.66369
585.956	26561.10545
586.159	26397.90432
586.363	26836.52974
586.566	26730.43715
586.769	26516.22413
586.973	26754.9197
587.176	26912.02109
587.379	26467.26356
587.582	26881.41625
587.786	26693.71373
587.989	26759.00015
588.192	26863.0535
588.395	27281.34408
588.599	26893.65815
588.802	26963.02987
589.005	27156.87115
589.208	27638.46507
589.411	26844.69087
589.615	27022.20115
589.818	27309.91233
590.021	26971.19135
590.224	27185.43827
590.427	27265.01948
590.63	27287.46583
590.833	27332.35899
591.036	27426.22853
591.239	27448.67599
591.442	27507.85638
591.645	27473.1643
591.848	27883.3696
592.051	27518.06
592.254	27271.1412
592.457	27648.66908
592.66	27387.456
592.863	27854.79654
593.066	27693.5671
593.269	27556.83405
593.472	27507.85638
593.675	28385.47518
593.878	27922.1477
594.081	27948.68032
594.284	28005.82815
594.486	28034.4024
594.689	28610.01522
594.892	28201.77026
595.095	28050.73064
595.298	28360.98069
595.5	28269.12771
595.703	28875.39714
595.906	27911.9429
596.109	28122.16754
596.311	27946.63934
596.514	28142.57833
596.717	27995.62312
596.92	28742.70397
597.122	28503.86742
597.325	28309.95099
597.528	28220.14036
597.73	29006.05315
597.933	28452.83585
598.136	28708.00034
598.338	28540.61057
598.541	29106.08954
598.743	28607.97389
598.946	28132.37292
599.148	28252.79852
599.351	28303.82747
599.554	28505.9087
599.756	28720.24864
599.959	28910.10223
600.161	29197.96189
600.363	29124.46384
600.566	29224.50318
600.768	29218.37825
600.971	29353.12886
601.173	28914.1852
601.376	29253.0863
601.578	29359.254
601.78	29202.04515
601.983	29083.63217
602.185	29208.17005
602.388	28830.48511
602.59	29171.42077
602.792	29487.88404
602.995	29498.09296
603.197	29291.87802
603.399	29473.59161
603.601	29191.837
603.804	29099.96479
604.006	29249.00299
604.208	29012.17776
604.41	29153.04625
604.613	29220.41989
604.815	29467.46629
605.017	29820.70843
605.219	29822.75039
605.421	29310.25317
605.623	29379.67118
605.826	29655.31359
606.028	29344.96203
606.23	29518.51086
606.432	29400.08848
606.634	29645.10426
606.836	29330.67011
607.038	29835.00215
607.24	29581.80705
607.442	29824.79235
607.644	29816.62452
607.846	29869.71569
608.048	29555.26336
608.25	29708.40251
608.452	29902.38756
608.654	30392.50077
608.856	29720.65391
609.058	29975.9003
609.26	29884.0096
609.462	29808.45672
609.664	29982.02643
609.866	29761.49217
610.067	29928.93366
610.269	29661.43919
610.471	29455.2157
610.673	30118.84595
610.875	30225.03782
611.077	30510.95515
611.278	30137.22508
611.48	29841.12805
611.682	29804.37282
611.884	30515.03986
612.085	30106.59324
612.287	30259.75508
612.489	30033.07789
612.69	30220.95346
612.892	30069.83538
613.094	30576.31111
613.295	29881.96761
613.497	29963.64807
613.699	29661.43919
613.9	29734.94725
614.102	29951.39589
614.304	29977.94234
614.505	29698.19305
614.707	30020.82547
614.908	30008.5731
615.11	30294.47269
615.311	29930.97567
615.513	30122.93019
615.714	30026.95167
615.916	30222.99564
616.117	29930.97567
616.319	30078.00376
616.52	29606.30907
616.722	29720.65391
616.923	29906.47156
617.124	29839.08608
617.326	29487.88404
617.527	30151.52003
617.729	30321.02169
617.93	30310.81051
618.131	30131.0987
618.333	30778.51451
618.534	30353.69766
618.735	30527.29402
618.937	30559.97199
619.138	30190.3209
619.339	30404.75448
619.54	30220.95346
619.742	30028.99374
619.943	30037.16203
620.144	29943.22779
620.345	30367.99349
620.546	30453.76976
620.748	30619.20166
620.949	30108.63536
621.15	30670.2626
621.351	30216.8691
621.552	30290.38825
621.753	30112.71959
621.954	30382.28938
622.155	30490.53168
622.356	30562.01438
622.558	30382.28938
622.759	30488.48934
622.96	30484.40467
623.161	30751.96181
623.362	30186.23658
623.563	30429.26203
623.764	30231.16437
623.965	30529.33638
624.166	30590.60789
624.366	30649.83813
624.567	30492.57402
624.768	30894.94063
624.969	30374.12029
625.17	30664.13524
625.371	30598.77752
625.572	31080.82337
625.773	30506.87045
625.973	30690.6872
626.174	30445.60049
626.375	30127.01444
626.576	30488.48934
626.777	30982.77385
626.977	30574.26871
627.178	31062.43883
627.379	30408.83906
627.58	30159.6886
627.78	30394.54305
627.981	30298.55714
628.182	30678.43242
628.382	30615.11682
628.583	30676.38997
628.784	30600.81993
628.984	30347.57089
629.185	30715.1969
629.386	29961.60604
629.586	30805.06745
629.787	30894.94063
629.987	30827.53549
630.188	30704.9845
630.388	30600.81993
630.589	30180.1101
630.79	30590.60789
630.99	30813.23763
631.191	30696.81461
631.391	31011.37129
631.591	31039.969
631.792	30533.42111
631.992	31056.31068
632.193	31332.09098
632.393	31095.12254
632.594	30682.51734
632.794	30835.70573
632.994	30602.86234
633.195	30553.84485
633.395	30946.00614
633.595	30886.77023
633.796	30737.66429
633.996	31084.90884
634.196	31007.28592
634.397	31593.59823
634.597	31193.17596
634.797	31849.00354
634.997	31450.58311
635.198	31019.54203
635.398	30831.62061
635.598	31750.92459
635.798	31411.76612
635.998	31340.26268
636.199	31193.17596
636.399	31289.18999
636.599	31201.34723
636.799	31620.15909
636.999	30909.23888
637.199	30892.89803
637.399	31364.77792
637.599	31082.86611
637.799	31421.98106
637.999	32128.96122
638.199	31430.15304
638.399	31548.64973
638.599	31652.84979
638.799	31840.83013
638.999	31636.50439
639.199	31750.92459
639.399	31338.21975
639.599	31438.32505
639.799	31133.93494
639.999	31663.06573
640.199	31432.19604
640.399	31483.27156
640.599	30604.90475
640.799	32274.06356
640.998	31814.26676
641.198	31618.11594
641.398	31808.1368
641.598	31846.96018
641.798	32104.43791
641.997	31771.35736
642.197	31515.96043
642.397	31687.58415
642.597	31487.35764
642.796	31411.76612
642.996	31229.94688
643.196	31887.82763
643.395	31285.10421
643.595	31787.7037
643.795	31652.84979
643.994	32039.04381
644.194	31955.26057
644.394	31959.34748
644.593	31808.1368
644.793	32161.65943
644.992	31752.96786
645.192	32128.96122
645.392	31977.73868
645.591	31844.91683
645.791	31940.95644
645.99	31973.65173
646.19	31967.52133
646.389	32370.12308
646.589	32363.99147
646.788	31916.43529
646.987	31654.89297
647.187	32039.04381
647.386	31714.14606
647.586	32131.00484
647.785	32462.09948
647.984	32502.97934
648.184	32357.85989
648.383	32288.36999
648.582	31589.51197
648.782	32120.78675
648.981	31728.44875
649.18	32208.66402
649.38	32498.89132
649.579	32494.8033
649.778	32558.1686
649.977	32529.55174
650.177	32531.59579
650.376	32081.95845
650.575	32278.1511
650.774	32415.08876
650.973	32102.39431
651.173	32190.27079
651.372	32388.518
651.571	32329.2461
651.77	32004.30402
651.969	32703.30407
652.168	32627.6686
652.367	32257.71347
652.566	32237.27606
652.765	32658.33123
652.964	32482.5393
653.163	32404.86919
653.362	32259.75722
653.561	32186.18343
653.76	32500.93533
653.959	32133.04847
654.158	32523.41962
654.357	32212.75143
654.556	32075.82774
654.755	32750.32238
654.954	32118.74314
655.153	32145.31026
655.352	32505.02336
655.551	32625.62445
655.749	33228.76002
655.948	32858.67392
656.147	33038.59426
656.346	33120.38306
656.545	32684.90595
656.743	32423.26445
656.942	32449.8357
657.141	32711.48107
657.34	32055.39214
657.538	32684.90595
657.737	32580.6536
657.936	33206.26604
658.135	32748.27808
658.333	33012.01384
658.532	32971.12175
658.731	33052.90699
658.929	32942.49792
659.128	32325.15845
659.326	32523.41962
659.525	33083.57756
659.724	32282.23865
659.922	32584.74181
660.121	32766.67688
660.319	32347.64063
660.518	32008.39103
660.716	32938.40885
660.915	32762.58824
661.113	32930.23072
661.312	32776.89852
661.51	33101.9802
661.709	32897.51865
661.907	32676.72907
662.105	32883.20732
662.304	32783.03154
662.502	32858.67392
662.701	32823.91888
662.899	32541.81606
663.097	32885.25179
663.296	33126.51739
663.494	33560.07611
663.692	33169.45844
663.891	32905.69661
664.089	32623.58029
664.287	32944.54247
664.485	32466.18743
664.684	33099.93545
664.882	32725.79093
665.08	33009.96921
665.278	32838.22969
665.476	33104.02495
665.675	33206.26604
665.873	32922.05264
666.071	33044.72827
666.269	33175.59298
666.467	33073.35397
666.665	33510.98724
666.863	33157.18944
667.061	32934.31978
667.259	32721.70239
667.457	32701.25982
667.655	32830.05207
667.853	32415.08876
668.051	32376.2547
668.249	32552.03638
668.447	32774.85419
668.645	32631.75692
668.843	32286.32621
669.041	31979.78216
669.239	32182.09608
669.437	32370.12308
669.635	32570.43311
669.833	32439.61595
670.031	32149.39754
670.229	32106.4815
670.426	32560.21268
670.624	32697.17134
670.822	32294.50135
671.02	32554.08045
671.218	32204.57662
671.415	32437.572
671.613	32588.83003
671.811	32545.90418
672.009	32838.22969
672.206	32752.36668
672.404	32288.36999
672.602	32366.03534
672.799	32529.55174
672.997	32785.07588
673.195	32278.1511
673.392	32705.34832
673.59	32445.74779
673.788	32212.75143
673.985	32128.96122
674.183	32316.98318
674.38	32190.27079
674.578	32335.37759
674.775	32263.84474
674.973	32455.96758
675.17	32261.80098
675.368	32253.62597
675.565	32521.37558
675.763	32590.87415
675.96	32380.34246
676.158	32139.17935
676.355	31750.92459
676.553	32529.55174
676.75	32059.47925
676.947	32259.75722
677.145	32092.17636
677.342	32245.451
677.539	32259.75722
677.737	32124.87398
677.934	32065.60992
678.131	32161.65943
678.329	32139.17935
678.526	32478.45132
678.723	32355.81604
678.92	32562.25676
679.118	32265.8885
679.315	31936.86956
679.512	32453.92362
679.709	32408.95701
679.906	32433.48412
680.104	32188.22711
680.301	31992.04305
680.498	31481.22852
680.695	31746.83806
680.892	31759.09767
681.089	31417.89508
681.286	31812.22344
681.483	30839.79086
681.68	31419.93807
681.877	31311.66185
682.075	31560.90833
682.272	31287.1471
682.469	31934.82613
682.665	31816.31009
682.862	31757.0544
683.059	31826.52674
683.256	31630.37489
683.453	31479.18548
683.65	31540.47736
683.847	31368.86382
684.044	31710.05959
684.241	31048.13983
684.438	31358.64909
684.635	31383.16451
684.831	32053.34859
685.028	31442.41106
685.225	31793.83361
685.422	31650.80661
685.619	31795.87692
685.815	31180.91909
686.012	31661.02253
686.209	31119.63557
686.405	31542.52045
686.602	31522.08964
686.799	31417.89508
686.996	31855.13361
687.192	31840.83013
687.389	31675.3249
687.586	31828.57008
687.782	31532.30502
687.979	31593.59823
688.175	30997.07254
688.372	31319.83348
688.568	30894.94063
688.765	30843.87599
688.962	30662.09279
689.158	30823.45038
689.355	30805.06745
689.551	30255.67068
689.748	30402.71219
689.944	30631.45621
690.14	30439.47356
690.337	31003.20056
690.533	30817.32272
690.73	30943.9635
690.926	31150.27716
691.123	30660.05035
691.319	31037.9263
691.515	30939.87823
691.712	30086.17216
691.908	30376.16256
692.104	30811.19508
692.301	30747.8768
692.497	30318.97945
692.693	30709.06946
692.889	30827.53549
693.086	30903.11105
693.282	30382.28938
693.478	30713.15442
693.674	30210.74257
693.87	30239.33312
694.067	30451.72744
694.263	30306.72605
694.459	30143.35148
694.655	30300.59937
694.851	30304.68382
695.047	30562.01438
695.243	30308.76828
695.439	29939.14375
695.635	30208.7004
695.831	30339.40188
696.027	29718.612
696.224	30351.6554
696.42	30002.44692
696.615	30437.43125
696.811	30006.53104
697.007	30318.97945
697.203	29841.12805
697.399	30065.75119
697.595	30269.96611
697.791	30545.67534
697.987	30180.1101
698.183	30367.99349
698.379	29710.44441
698.575	30296.51492
698.77	29781.91147
698.966	30367.99349
699.162	30249.54409
699.358	30537.50585
699.554	30028.99374
699.749	30114.76171
699.945	29928.93366
700.141	29951.39589
700.337	29988.15256
700.532	29943.22779
700.728	30180.1101
700.924	30382.28938
701.119	30233.20656
701.315	29230.62812
701.511	29479.71693
701.706	29571.59792
701.902	29573.63974
702.097	29651.22985
702.293	29393.96328
702.489	29379.67118
702.684	29506.2601
702.88	29769.65988
703.075	29518.51086
703.271	30014.69928
703.466	29434.79812
703.662	29538.92887
703.857	29404.17195
704.053	29681.85796
704.248	30329.19065
704.443	30225.03782
704.639	30355.73991
704.834	29990.19461
705.03	29583.84888
705.225	29694.10927
705.42	29355.17057
705.616	29600.18355
705.811	29489.92582
706.006	29702.27683
706.202	29636.93682
706.397	29653.27172
706.592	29422.54762
706.787	29783.9534
706.983	29338.83691
707.178	29986.11052
707.373	29438.88163
707.568	29195.92025
707.763	28583.47801
707.959	29118.33906
708.154	29398.04674
708.349	29316.37824
708.544	29528.71985
708.739	29489.92582
708.934	29044.84248
709.129	29116.29747
709.324	28999.92856
709.519	28989.72092
709.714	28738.62118
709.909	28930.51713
710.104	28750.86958
710.299	28520.19767
710.494	28728.4142
710.689	28924.39264
710.884	29326.58671
711.079	29330.67011
711.274	29120.38065
711.469	29571.59792
711.664	28728.4142
711.859	28726.37281
712.054	28334.44516
712.249	28246.67509
712.443	28512.03254
712.638	28663.09019
712.833	28036.44343
713.028	28038.48445
713.223	27971.13115
713.417	28550.81706
713.612	28463.04211
713.807	29008.09469
714.002	29118.33906
714.196	28977.47179
714.391	28612.05656
714.586	29381.71291
714.78	29396.00501
714.975	29061.17494
715.17	28775.3665
715.364	28646.75936
715.559	28918.26817
715.754	28810.07072
715.948	28887.64596
716.143	28416.09352
716.337	27852.75561
716.532	28663.09019
716.726	29046.88403
716.921	28938.68311
717.115	29132.63022
717.31	28532.4454
717.504	28634.51128
717.699	28520.19767
717.893	28171.15363
718.088	28109.92112
718.282	28326.28042
718.476	28156.86596
718.671	27828.26461
718.865	28009.91017
719.059	27624.1795
719.254	27601.73087
719.448	27018.12033
719.642	27764.99696
719.837	27477.2457
720.031	27771.11958
720.225	27305.83114
720.419	27713.97548
720.614	27595.60854
720.808	27705.81212
721.002	26979.35286
721.196	27822.14188
721.39	27767.03783
721.585	27716.01633
721.779	27481.32711
721.973	27764.99696
722.167	27336.44022
722.361	27920.10674
722.555	27393.57795
722.749	27489.48994
722.943	27162.99265
723.137	27230.32999
723.331	26883.45656
723.525	27538.46734
723.719	27181.35724
723.913	27577.24162
724.107	26744.71861
724.301	27052.80744
724.495	27152.79015
724.689	27187.47879
724.883	26922.22277
725.077	26726.35675
725.271	26671.27187
725.465	27020.16074
725.659	27305.83114
725.853	27544.58957
726.046	27148.70916
726.24	26754.9197
726.434	26689.63338
726.628	27054.84787
726.822	26520.30422
727.015	27128.30429
727.209	26940.5859
727.403	27450.71667
727.596	27393.57795
727.79	27407.86253
727.984	27322.15595
728.177	27699.6896
728.371	27689.48544
728.565	26812.04648
728.758	27024.24156
728.952	26730.43715
729.146	26979.35286
729.339	27622.13871
729.533	27334.39961
729.726	27265.01948
729.92	27301.74995
730.113	27146.66867
730.307	27073.21181
730.5	27207.88405
730.694	27454.79805
730.887	27207.88405
731.081	27760.91521
731.274	27232.37054
731.468	26950.78768
731.661	26477.4636
731.854	26724.31655
732.048	26532.54453
732.241	26614.14799
732.435	26667.19156
732.628	26571.30586
732.821	26993.63556
733.014	27358.88706
733.208	27028.32238
733.401	27273.18177
733.594	26675.3522
733.788	26430.54373
733.981	26930.38415
734.174	26909.98076
734.367	26722.27635
734.56	27016.07993
734.754	26875.29532
734.947	26895.69847
735.14	26738.59798
735.333	26840.6103
735.526	26473.38358
735.719	26147.00296
735.912	25841.06126
736.105	26269.3907
736.298	26414.22397
736.491	25973.63103
736.684	26287.74939
736.877	25949.15603
737.07	26212.27566
737.263	26740.63819
737.456	26216.35526
737.649	26067.45426
737.842	26049.09724
738.035	26100.0893
738.228	26210.23586
738.421	26336.70654
738.614	26265.31101
738.807	25936.91863
739	25637.12327
739.192	25814.54825
739.385	26224.51449
739.578	26289.78925
739.771	26297.94872
739.964	26124.56588
740.156	26534.58458
740.349	26342.82625
740.542	26330.58685
740.735	26034.81966
740.927	26381.58477
741.12	26479.50362
741.313	26114.36728
741.505	26138.844
741.698	25783.9567
741.891	25559.63193
742.083	25959.35391
742.276	26299.98859
742.468	25732.97174
742.661	25053.97249
742.854	25484.18261
743.046	25553.51431
743.239	25300.669
743.431	25737.05049
743.624	25482.14348
743.816	25202.80209
744.009	25871.65359
744.201	25624.8876
744.393	25679.94865
744.586	25712.57809
744.778	25582.06334
744.971	25520.88734
745.163	25792.1144
745.355	25416.89233
745.548	25237.46272
745.74	25321.05856
745.932	25728.89299
746.125	25443.40036
746.317	25276.20181
746.509	25290.4743
746.702	25871.65359
746.894	25382.22852
747.086	25043.77912
747.278	25633.04471
747.471	25263.96833
747.663	25790.07498
747.855	25622.84833
748.047	25270.08506
748.239	25418.9314
748.431	25292.51324
748.623	25288.43537
748.815	25113.09516
749.008	25325.1365
749.2	25304.7469
749.392	25651.3983
749.584	25227.26835
749.776	25166.10328
749.968	25498.45659
750.16	25031.54715
750.352	25082.51423
750.544	25478.06522
750.736	25355.72131
750.928	25239.5016
751.12	24756.34982
751.311	24970.38852
751.503	25284.3575
751.695	25488.26088
751.887	25608.5735
752.079	25785.99612
752.271	24941.84853
752.463	25361.83832
752.654	25319.0196
752.846	25003.0062
753.038	24546.41391
753.23	24680.93294
753.421	24576.98546
753.613	24672.77996
753.805	25520.88734
753.997	25149.79293
754.188	24919.42458
754.38	24446.55083
754.572	24540.29967
754.763	24894.9624
754.955	24171.45029
755.146	24236.65491
755.338	24566.79488
755.53	24477.12051
755.721	24638.13026
755.913	24672.77996
756.104	24568.83299
756.296	24652.3977
756.487	24173.4879
756.679	24644.24486
756.87	24426.17136
757.062	24208.12755
757.253	24301.86229
757.445	24265.1828
757.636	24171.45029
757.827	23886.21343
758.019	24238.6926
758.21	24032.89981
758.401	24312.05119
758.593	24034.93722
758.784	23949.36826
758.975	23651.95387
759.167	23814.91293
759.358	23629.5485
759.549	23383.11379
759.74	23043.0693
759.932	23523.63714
760.123	23405.51507
760.314	23346.45798
760.505	23165.23056
760.696	23120.43672
760.888	23364.78576
761.079	23326.09408
761.27	23544.00407
761.461	23686.58108
761.652	23808.80163
761.843	23244.64168
762.034	23554.18765
762.225	23220.20696
762.416	23362.74932
762.607	23065.46464
762.798	23497.1606
762.989	23438.09942
763.18	23425.88019
763.371	23063.42869
763.562	23159.12221
763.753	23034.92564
763.944	22737.719
764.135	23100.07641
764.326	23258.89548
764.517	23122.47277
764.708	23368.85863
764.899	22627.81184
765.089	22631.8823
765.28	22233.04603
765.471	22499.59983
765.662	22344.95031
765.853	22898.5273
766.043	22346.98504
766.234	22290.01409
766.425	21954.35158
766.615	22424.30732
766.806	22436.51658
766.997	22454.83072
767.187	22009.27117
767.378	22764.17965
767.569	22403.95884
767.759	22585.07294
767.95	22534.19533
768.141	22257.46056
768.331	22184.21856
768.522	22322.56857
768.712	22790.64088
768.903	22892.42026
769.093	21921.80795
769.284	22157.77125
769.474	21881.12978
769.665	21419.54165
769.855	21712.33188
770.046	21990.96433
770.236	21460.20205
770.426	21433.77261
770.617	21393.11324
770.807	21781.47479
770.998	21803.84551
771.188	21722.49968
771.378	21724.53325
771.569	21931.97773
771.759	21301.63554
771.949	21547.6273
772.139	21600.49263
772.33	21263.01406
772.52	21691.99659
772.71	21616.75942
772.9	21663.52784
773.09	21746.90277
773.281	21480.53285
773.471	21691.99659
773.661	21228.45924
773.851	21114.63988
774.041	21025.21934
774.231	21376.84995
774.421	20799.67104
774.611	21043.50926
774.802	20608.70605
774.992	20624.95696
775.182	20868.75251
775.372	20943.93483
775.562	20647.30239
775.752	20889.0715
775.942	20588.39279
776.131	20759.03712
776.321	20535.58026
776.511	20809.82978
776.701	20610.7374
776.891	20322.32771
777.081	20574.17375
777.271	20511.20621
777.461	20801.70278
777.651	20620.8942
777.84	20708.24705
778.03	20078.66718
778.22	20054.30445
778.41	20046.18368
778.599	20021.82177
778.789	20444.18065
778.979	20517.29966
779.169	20202.52038
779.358	20476.67732
779.548	20283.74409
779.738	20070.5462
779.927	20054.30445
780.117	19952.79963
780.307	20025.88204
780.496	20241.1008
780.686	20291.86683
780.875	19810.71054
781.065	19958.88962
781.254	19741.70326
781.444	19682.84794
781.633	19701.11301
781.823	19764.02861
782.012	19958.88962
782.202	19971.06972
782.391	19481.95454
782.581	19573.26465
782.77	19297.33091
782.96	19388.62402
783.149	19301.3882
783.338	19749.82151
783.528	19175.61973
783.717	19230.38793
783.906	19258.78743
784.096	19068.12045
784.285	19360.22082
784.474	19640.23077
784.663	19453.54867
784.853	19301.3882
785.042	19331.81843
785.231	19587.46921
785.42	19053.92329
785.61	19392.68169
785.799	19157.36433
785.988	19287.18774
786.177	19272.98749
786.366	19191.84703
786.555	18845.04506
786.744	18974.82844
786.933	18956.57666
787.122	19084.34602
787.312	19135.05262
787.501	18664.59215
787.69	18553.09185
787.879	18755.82847
788.068	18194.34218
788.257	18510.52211
788.445	18212.58086
788.634	18745.6907
788.823	18451.7381
789.012	18443.63022
789.201	18342.28677
789.39	18170.02441
789.579	18313.9123
789.768	18666.61954
789.957	18658.51001
790.145	18630.12716
790.334	18601.74508
790.523	18366.60834
790.712	18303.77873
790.9	18463.90005
791.089	17951.18792
791.278	18131.52235
791.467	17920.79725
791.655	17953.21399
791.844	17963.34441
792.033	17807.34566
792.221	17430.59964
792.41	18032.23359
792.599	17390.09592
792.787	17576.42344
792.976	17768.8556
793.164	17987.65777
793.353	17937.00551
793.541	18058.57466
793.73	17673.64859
793.918	17669.59739
794.107	17647.31603
794.295	17633.13719
794.484	17811.39731
794.672	17471.10461
794.861	17442.751
795.049	17323.26745
795.238	17175.44633
795.426	17643.26492
795.614	17252.39235
795.803	17062.0597
795.991	17379.97018
796.179	17471.10461
796.368	17458.95299
796.556	17414.398
796.744	17248.34246
796.932	17264.54211
797.121	16742.19269
797.309	17270.61703
797.497	17319.21735
797.685	17517.68688
797.874	16989.17287
798.062	17138.99966
798.25	16776.60572
798.438	17465.02878
798.626	17394.14623
798.814	17143.04925
799.002	16829.23879
799.19	16922.363
799.378	16823.16566
799.566	17033.7144
799.755	17005.36964
799.943	17108.62814
800.131	17205.81926
800.318	17058.01034
800.506	16829.23879
800.694	16728.02281
800.882	17005.36964
801.07	17311.11717
801.258	16894.02028
801.446	17130.90053
801.634	16503.34416
801.822	16938.55907
802.01	16999.29584
802.197	17181.52086
802.385	16839.36073
802.573	16977.02541
802.761	16871.75135
802.949	16863.65363
803.136	16841.38512
803.324	16948.6817
803.512	16776.60572
803.699	17076.23255
803.887	16823.16566
804.075	17177.47117
804.262	16717.90155
804.45	16794.82467
804.638	16948.6817
804.825	16968.92715
805.013	16906.1671
805.201	16942.60811
805.388	16709.80458
805.576	16713.85306
805.763	16620.74037
805.951	16454.76852
806.138	16317.1438
806.326	16689.56232
806.513	16424.40935
806.701	16566.0895
806.888	16365.71621
807.075	16470.96027
807.263	16513.46424
807.45	16685.51389
807.638	16531.68051
807.825	16865.67806
808.012	16454.76852
808.2	16555.96914
808.387	16752.3141
808.574	16632.88522
808.761	16645.03017
808.949	16375.8356
809.136	16258.45357
809.323	16665.27191
809.51	16525.6084
809.698	16705.75611
809.885	16898.06921
810.072	16772.55709
810.259	16683.48969
810.446	16728.02281
810.633	16772.55709
810.82	16693.61075
811.008	17047.88698
811.195	16734.0956
811.382	16904.14262
811.569	16851.50714
811.756	16738.14414
811.943	16993.22205
812.13	16825.19004
812.317	17163.29734
812.504	16924.3875
812.691	16954.75531
812.878	17086.35609
813.064	17096.47971
813.251	17147.09884
813.438	16825.19004
813.625	16434.52902
813.812	16796.84901
813.999	16616.6921
814.186	17033.7144
814.372	16861.62921
814.559	17021.56658
814.746	16487.15215
814.933	16290.8342
815.12	16130.95916
815.306	16011.56539
815.493	16335.35833
815.68	16549.89696
815.866	16309.04851
816.053	16853.53155
816.24	16367.74008
816.426	16823.16566
816.613	16608.59559
816.799	16849.48273
816.986	16428.45721
817.173	16487.15215
817.359	16373.81172
817.546	16481.08018
817.732	16082.39157
817.919	16495.24814
818.105	16491.20014
818.292	16582.28218
818.478	16533.70455
818.665	16572.16174
818.851	16616.6921
819.037	16764.45987
819.224	16434.52902
819.41	16240.23967
819.597	16300.95324
819.783	16475.00823
819.969	16248.33472
820.156	16003.47109
820.342	16232.14465
820.528	16104.6516
820.714	16398.09843
820.901	16197.74111
821.087	16268.57247
821.273	16521.56034
821.459	16260.47735
821.646	16135.0065
821.832	16624.78864
822.018	16276.66762
822.204	15659.48138
822.39	16025.73048
822.576	15708.04274
822.762	15594.73367
822.948	15778.86238
823.134	15944.78803
823.32	15795.04991
823.507	15758.62807
823.693	15780.88582
823.879	16009.54181
824.065	15940.74096
824.25	15807.1906
824.436	15519.8701
824.622	15552.24342
824.808	15799.0968
824.994	15750.53438
825.18	15823.37824
825.366	15979.1883
825.552	15570.45349
825.738	15906.34111
825.923	15985.25898
826.109	16033.82485
826.295	15758.62807
826.481	16054.06088
826.667	15924.55275
826.852	15975.14119
827.038	15677.69183
827.224	15675.66844
827.409	15588.66362
827.595	15495.59022
827.781	15323.60982
827.966	15420.72776
828.152	15123.30573
828.338	15007.97903
828.523	14957.39688
828.709	15131.39881
828.894	14629.61578
829.08	14888.60475
829.266	14819.812
829.451	14951.327
829.637	14746.97178
829.822	15258.86492
830.008	15216.37619
830.193	15088.9101
830.378	14779.34533
830.564	15250.77183
830.749	15157.70133
830.935	15072.72391
831.12	14987.74619
831.305	14939.18725
831.491	14892.65136
831.676	14791.48536
831.861	14706.50454
832.047	14884.55813
832.232	14560.81928
832.417	14753.04184
832.602	14637.7094
832.788	14941.21054
832.973	15066.65409
833.158	15163.77115
833.343	15040.3515
833.528	14763.15858
833.714	14570.93649
833.899	14799.5787
834.084	14358.46791
834.269	14635.686
834.454	14131.81463
834.639	14431.31607
834.824	14299.78314
835.009	14392.86868
835.194	14423.22193
835.379	14492.02138
835.564	13988.11903
835.749	14002.28673
835.934	13980.02314
836.119	14099.43353
836.304	13882.8693
836.489	13739.15081
836.674	14014.43038
836.859	14048.83691
837.044	14081.21891
837.228	14099.43353
837.413	13909.1824
837.598	14156.10009
837.783	13980.02314
837.968	13832.26586
838.152	13601.49032
838.337	14014.43038
838.522	13575.17111
838.707	14079.19505
838.891	13858.57987
839.076	14036.69351
839.261	13921.32675
839.445	14065.02799
839.63	14052.88469
839.815	14054.90858
839.999	14152.05253
840.184	14097.40969
840.368	14139.90982
840.553	14220.85986
840.737	13676.39569
840.922	13890.96568
841.106	13498.2346
841.291	13577.19569
841.475	13605.53938
841.66	13409.14351
841.844	13455.71477
842.029	13305.86929
842.213	13151.94994
842.397	13528.6049
842.582	13151.94994
842.766	13192.45752
842.951	12912.91617
843.135	13214.73591
843.319	12665.70227
843.504	13241.06424
843.688	13097.26177
843.872	13263.34147
844.056	13036.49305
844.241	12965.59061
844.425	12900.76003
844.609	12799.4513
844.793	12837.95022
844.977	12925.07212
845.161	12864.29045
845.346	13042.57012
845.53	12665.70227
845.714	12813.63535
845.898	12600.845
846.082	12965.59061
846.266	12892.65583
846.45	12876.44717
846.634	12730.55343
846.818	12973.69406
847.002	12653.542
847.186	13056.74978
847.37	12769.05599
847.554	13050.67281
847.738	12738.6594
847.922	12977.74575
848.106	12829.84535
848.29	12649.48853
848.473	12681.91563
848.657	12458.94749
848.841	12347.43411
849.025	12213.59042
849.209	12148.68518
849.392	12073.62893
849.576	12073.62893
849.76	12274.43229
849.944	11929.57219
850.127	12641.38152
850.311	11976.24285
850.495	12341.35097
850.678	12221.70305
850.862	12610.97936
851.046	11945.80595
851.229	12097.97264
851.413	12053.34165
851.596	12276.46025
851.78	12097.97264
851.964	12256.18041
852.147	11840.27709
852.331	12018.85149
852.514	11653.51576
852.698	11523.55012
852.881	11094.78692
853.065	11277.72693
853.248	11259.43673
853.431	11161.87483
853.615	11092.75377
853.798	11263.50129
853.982	11149.67789
854.165	11247.2428
854.348	11106.98559
854.532	11584.47622
854.715	11346.81582
854.898	11489.02157
855.081	11257.40444
855.265	11478.8656
855.448	11052.08851
855.631	11367.13387
855.814	11314.30486
855.997	11115.11782
856.181	11141.54639
856.364	11212.69132
856.547	11090.72061
856.73	11324.46481
856.913	10871.07429
857.096	11285.85564
857.279	11090.72061
857.462	11251.30749
857.645	10938.20232
857.828	10930.06625
858.011	10919.89591
858.194	10972.77861
858.377	10702.18109
858.56	10659.43604
858.743	10781.55067
858.926	10712.35769
859.109	10649.25785
859.292	10740.85059
859.475	10425.25881
859.658	10529.13191
859.841	10565.7851
860.023	10665.5428
860.206	10227.60231
860.389	10425.25881
860.572	10425.25881
860.755	10323.38966
860.937	10141.97965
861.12	10333.57806
861.303	10211.2951
861.486	10276.51872
861.668	10319.3142
861.851	10408.96195
862.034	10170.52324
862.216	10300.97401
862.399	9748.20004
862.581	10154.21295
862.764	9917.61225
862.947	10178.67805
863.129	10099.15915
863.312	10023.69838
863.494	10215.37199
863.677	10099.15915
863.859	10156.25178
864.042	9960.45944
864.224	9966.57995
864.406	9911.4907
864.589	9492.86246
864.771	9672.64543
864.954	9396.7915
865.136	9468.3371
865.318	9190.21831
865.501	9539.86298
865.683	9468.3371
865.865	9697.15193
866.048	9364.0783
866.23	9570.51097
866.412	9194.31053
866.594	9648.13671
866.777	9601.15541
866.959	9525.55937
867.141	8864.66579
867.323	9143.15294
867.505	9198.40268
867.687	9351.80977
867.869	9304.77489
868.052	9615.45494
868.234	9411.10221
868.416	9650.17919
868.598	9182.03368
868.78	9038.75819
868.962	9286.36756
869.144	9462.20539
869.326	9359.98886
869.508	9151.33887
869.69	9304.77489
869.872	9398.83594
870.054	9227.04582
870.236	9454.02956
870.417	9210.67871
870.599	8989.61561
870.781	9048.99496
870.963	9044.90031
871.145	9055.13682
871.327	9118.5935
871.508	8792.94318
871.69	8960.94444
871.872	9071.51433
872.054	9173.84877
872.235	8575.58928
872.417	9038.75819
872.599	8870.81241
872.78	8764.24792
872.962	8946.60755
873.144	8911.78579
873.325	8649.43093
873.507	8768.34746
873.689	8684.2922
873.87	8649.43093
874.052	8641.2275
874.233	8733.49903
874.415	8600.20586
874.596	8782.69528
874.778	8460.67596
874.959	8505.82758
875.141	8561.22837
875.322	8897.44592
875.503	8780.64565
875.685	8954.80017
875.866	8727.34875
876.048	8977.32839
876.229	8813.43761
876.41	8967.08855
876.592	8913.83427
876.773	9051.04226
876.954	8688.39318
877.136	8922.02802
877.317	8756.04862
877.498	8645.32925
877.679	8497.61888
877.86	8667.88757
878.042	8616.61541
878.223	8938.41466
878.404	8456.57081
878.585	8854.42105
878.766	8704.79634
878.947	8760.14831
879.128	8497.61888
879.309	8526.348
879.49	8764.24792
879.672	8838.02854
879.853	8479.14819
880.034	8827.78264
880.215	8575.58928
880.396	8575.58928
880.576	8667.88757
880.757	9028.52099
880.938	8466.83354
881.119	8842.12678
881.3	8710.94722
881.481	9057.18406
881.662	8922.02802
881.843	9284.32221
882.023	8948.65573
882.204	8946.60755
882.385	8487.35758
882.566	8364.18457
882.747	8647.3801
882.927	8723.24848
883.108	8628.92179
883.289	8643.27838
883.469	8557.12508
883.65	8790.89364
883.831	8919.97961
884.011	8938.41466
884.192	8797.04221
884.373	8993.71121
884.553	8567.38316
884.734	8973.23251
884.914	8854.42105
885.095	8723.24848
885.275	8723.24848
885.456	9042.85295
885.636	8747.84902
885.817	9046.94764
885.997	8817.53628
886.178	8930.22148
886.358	9083.79673
886.538	9087.89073
886.719	8928.17314
886.899	9096.07851
887.08	8962.9925
887.26	9065.37289
887.44	8690.44364
887.621	8915.88273
887.801	8592.00064
887.981	9001.9022
888.161	8561.22837
888.342	8751.94886
888.522	8874.91007
888.702	8907.68877
888.882	8751.94886
889.062	8981.4242
889.242	8764.24792
889.423	9014.18816
889.603	8647.3801
889.783	8782.69528
889.963	8592.00064
890.143	8811.38825
890.323	8799.0917
890.503	8819.58559
890.683	8626.87078
890.863	8786.7945
891.043	8669.93821
891.223	8838.02854
891.403	8725.29863
891.583	9118.5935
891.763	8706.84665
891.943	8772.44693
892.122	8495.56666
892.302	8665.8369
892.482	8618.66652
892.662	8477.0958
892.842	8271.75905
893.022	8436.0439
893.201	8505.82758
893.381	8712.99747
893.561	8659.6848
893.741	8766.2977
893.92	8553.02171
894.1	8503.77543
894.28	8511.9839
894.459	8509.93181
894.639	8378.55833
894.819	8370.34487
894.998	8263.54153
895.178	8479.14819
895.357	8259.43266
895.537	8485.30526
895.716	8534.55563
895.896	8528.39993
896.075	8109.40435
896.255	8427.8326
896.434	8429.88546
896.614	8448.36027
896.793	8329.27291
896.973	8415.51508
897.152	8263.54153
897.331	8337.48793
897.511	8092.95642
897.69	8212.17489
897.87	7959.26901
898.049	8076.50721
898.228	7730.77134
898.407	8045.66144
898.587	7668.97103
898.766	8018.92476
898.945	7654.54822
899.124	7706.05349
899.304	7483.45527
899.483	7646.30614
899.662	7382.37897
899.841	7481.39301
900.02	7233.76364
900.199	7306.02141
900.378	7506.13873
900.557	7349.36316
900.737	7479.33073
900.916	7347.29949
901.095	7477.26842
901.274	7320.46973
901.453	6977.54584
901.632	7258.54077
901.811	7076.76767
901.989	7167.67572
902.168	6857.58348
902.347	7070.56782
902.526	6747.89586
902.705	6952.73229
902.884	6627.78665
903.063	7006.49089
903.242	6847.23833
903.42	7014.76009
903.599	6778.94603
903.778	7045.7664
903.957	6642.2867
904.135	6838.96179
904.314	6774.8063
904.493	6727.19288
904.672	6327.17346
904.85	6457.8447
905.029	6372.8152
905.207	6507.59993
905.386	6258.68965
905.565	6312.64872
905.743	6117.49103
905.922	6061.39674
906.1	6028.14759
906.279	6198.48586
906.457	5967.86813
906.636	6337.54758
906.814	5947.07752
906.993	5990.73509
907.171	5824.36487
907.35	5965.78918
907.528	5653.67868
907.707	5743.20464
907.885	5691.15997
908.063	5657.84364
908.242	5691.15997
908.42	5599.52553
908.598	5378.58254
908.777	5616.18974
908.955	5691.15997
909.133	5776.50549
909.311	5395.2667
909.49	5474.49593
909.668	5524.51795
909.846	5707.81587
910.024	5474.49593
910.202	5759.85582
910.38	5445.31016
910.559	5668.25564
910.737	5730.71527
910.915	5932.52268
911.093	5593.27607
911.271	5703.65204
911.449	5384.83927
911.627	5514.09781
911.805	5251.31647
911.983	5499.50863
912.161	5430.71555
912.339	5649.51362
912.517	5557.85842
912.695	5726.55195
912.872	5541.18894
913.05	5811.88102
913.228	5682.83146
913.406	5957.47312
913.584	5587.02639
913.762	5653.67868
913.939	5374.41126
914.117	5501.59287
914.295	5295.13921
914.473	5599.52553
914.65	5751.53042
914.828	6007.36381
915.006	5553.69119
915.184	5651.59616
915.361	5472.41139
915.539	5632.85243
915.716	5073.83365
915.894	5509.92959
916.072	5215.83337
916.249	5436.97053
916.427	5067.56649
916.604	5557.85842
916.782	5449.47984
916.959	5541.18894
917.137	5282.61948
917.314	5609.94084
917.492	5309.7445
917.669	5482.83388
917.847	4917.09214
918.024	5236.7066
918.201	5073.83365
918.379	5303.48523
918.556	5002.79357
918.733	4919.18287
918.911	4674.41173
919.088	4827.16872
919.265	4940.089
919.442	5032.04861
919.62	4730.92494
919.797	5282.61948
919.974	4871.09009
920.151	4935.90796
920.328	4952.63157
920.506	4864.81622
920.683	4875.27255
920.86	4737.20317
921.037	4565.52537
921.214	4500.58371
921.391	4311.92381
921.568	4730.92494
921.745	4546.67354
921.922	4829.26044
922.099	4425.14097
922.276	4607.41189
922.453	4601.12948
922.63	4835.53547
922.807	4458.67459
922.984	4563.43081
923.161	4540.38919
923.338	4561.33623
923.514	4263.68255
923.691	4423.04493
923.868	4351.76669
924.045	4517.34488
924.222	4303.53484
924.399	4431.42895
924.575	4106.2959
924.752	4500.58371
924.929	4079.00352
925.105	4274.17075
925.282	4066.40586
925.459	4102.0973
925.635	4160.87005
925.812	4209.13533
925.989	3976.10085
926.165	4194.44708
926.342	3770.1497
926.518	3995.00504
926.695	3730.19843
926.871	3929.88368
927.048	3719.68378
927.224	3820.60438
927.401	3342.9513
927.577	3601.88698
927.754	3336.63243
927.93	3530.33874
928.107	3340.84503
928.283	3667.1033
928.459	3505.08133
928.636	3717.58079
928.812	3580.84561
928.988	3717.58079
929.165	3532.4434
929.341	3570.32423
929.517	3456.66396
929.693	3271.32839
929.87	3125.91642
930.046	3336.63243
930.222	2923.47836
930.398	3237.61669
930.574	3159.64209
930.751	3273.43522
930.927	3083.75358
931.103	3277.64885
931.279	2877.06683
931.455	3201.79332
931.631	2915.04042
931.807	2993.08231
931.983	2898.16385
932.159	2809.54686
932.335	2604.79282
932.511	2936.13482
932.687	2590.01213
932.863	2948.79076
933.039	2581.56576
933.215	2942.46286
933.391	2796.88527
933.566	2733.57002
933.742	2587.90056
933.918	2587.90056
934.094	2528.77164
934.27	2661.79838
934.445	2264.69872
934.621	2615.35008
934.797	2245.67949
934.973	2137.89062
935.148	2099.84245
935.324	2140.00434
935.5	1994.14069
935.675	2019.51068
935.851	1759.42978
936.027	1985.68382
936.202	1486.60167
936.378	1664.26156
936.553	1651.57201
936.729	1808.06849
936.904	1359.69893
937.08	1554.28285
937.255	1241.26026
937.431	1336.43373
937.606	1029.78837
937.782	1241.26026
937.957	1141.86307
938.133	1114.37177
938.308	877.56352
938.483	976.92843
938.659	940.98604
938.834	993.84318
939.009	708.47565
939.185	936.75766
939.36	936.75766
939.535	955.7856
939.71	691.57044
939.886	949.44289
940.061	790.89829
940.236	809.92106
940.411	714.81528
940.586	632.40802
940.761	647.19775
940.937	695.79667
941.112	630.29525
941.287	543.68269
941.462	497.21707
941.637	499.329
941.812	391.64037
941.987	543.68269
942.162	433.86636
942.337	541.57047
942.512	454.98174
942.687	440.20081
942.862	480.32222
943.037	414.86386
943.212	454.98174
943.386	526.78531
943.561	387.41813
943.736	372.64081
943.911	324.09267
944.086	404.30748
944.26	286.10501
944.435	397.97385
944.61	438.08931
944.785	385.30703
944.959	385.30703
945.134	421.19789
945.309	381.08489
945.483	463.42832
945.658	385.30703
945.833	438.08931
946.007	385.30703
946.182	442.31232
946.357	338.86722
946.531	340.97794
946.706	370.52983
946.88	332.53516
947.055	454.98174
947.229	429.64347
947.404	362.08609
947.578	440.20081
947.752	431.75491
947.927	446.5354
948.101	522.5611
948.276	433.86636
948.45	431.75491
948.624	558.46863
948.799	370.52983
948.973	482.43403
949.147	372.64081
949.321	433.86636
949.496	427.53205
949.67	507.77683
949.844	438.08931
950.018	416.97519
950.193	404.30748
950.367	395.86267
950.541	368.41887
950.715	482.43403
950.889	400.08505
951.063	552.13172
951.237	378.97385
951.411	433.86636
951.585	522.5611
951.759	655.64929
951.933	438.08931
952.107	484.54585
952.281	353.64262
952.455	522.5611
952.629	497.21707
952.803	541.57047
952.977	480.32222
953.151	545.79493
953.325	547.90718
953.499	579.59254
953.672	374.75181
953.846	463.42832
954.02	435.97783
954.194	528.89743
954.368	478.21043
954.541	552.13172
954.715	395.86267
954.889	471.87515
955.062	429.64347
955.236	522.5611
955.41	412.75256
955.583	476.09866
955.757	431.75491
955.93	522.5611
956.104	414.86386
956.278	482.43403
956.451	457.09336
956.625	471.87515
956.798	423.30926
956.972	497.21707
957.145	448.64696
957.319	450.75854
957.492	416.97519
957.665	492.99327
957.839	366.30793
958.012	607.0556
958.185	533.12172
958.359	539.45826
958.532	421.19789
958.705	531.00957
958.879	492.99327
959.052	541.57047
959.225	480.32222
959.398	524.6732
959.572	385.30703
959.745	516.2249
959.918	518.33696
960.091	467.65171
960.264	438.08931
960.438	524.6732
960.611	480.32222
960.784	425.42065
960.957	463.42832
961.13	516.2249
961.303	528.89743
961.476	581.70501
961.649	414.86386
961.822	408.52999
961.995	340.97794
962.168	410.64126
962.341	286.10501
962.514	425.42065
962.686	357.86432
962.859	429.64347
963.032	366.30793
963.205	471.87515
963.378	364.197
963.551	457.09336
963.723	321.98209
963.896	383.19595
964.069	414.86386
964.242	338.86722
964.414	353.64262
964.587	397.97385
964.76	366.30793
964.932	446.5354
965.105	355.75346
965.278	457.09336
965.45	429.64347
965.623	459.205
965.795	317.76099
965.968	355.75346
966.14	355.75346
966.313	446.5354
966.485	288.21528
966.658	391.64037
966.83	328.31388
967.003	338.86722
967.175	362.08609
967.348	408.52999
967.52	421.19789
967.692	362.08609
967.865	319.87153
968.037	338.86722
968.209	355.75346
968.382	338.86722
968.554	345.19943
968.726	340.97794
968.898	227.02509
969.071	332.53516
969.243	330.42451
969.415	252.34322
969.587	233.35436
969.759	351.5318
969.932	309.31899
970.104	309.31899
970.276	138.43433
970.448	248.12334
970.62	296.65654
970.792	252.34322
970.964	319.87153
971.136	353.64262
971.308	208.03833
971.48	321.98209
971.652	237.57397
971.824	239.6838
971.996	269.22351
972.168	330.42451
972.339	220.69599
972.511	269.22351
972.683	277.66411
972.855	260.78321
973.027	254.45319
973.199	269.22351
973.37	246.01343
973.542	178.50662
973.714	262.89326
973.886	336.75651
974.057	277.66411
974.229	250.23327
974.401	220.69599
974.572	233.35436
974.744	311.42946
974.915	210.14789
975.087	222.80567
975.259	239.6838
975.43	246.01343
975.602	180.61589
975.773	159.52406
975.945	197.49084
976.116	227.02509
976.288	195.3814
976.459	184.83451
976.63	218.58633
976.802	189.0532
976.973	227.02509
977.145	210.14789
977.316	203.81928
977.487	155.30595
977.659	102.58669
977.83	210.14789
978.001	184.83451
978.172	142.6521
978.344	151.08791
978.515	184.83451
978.686	138.43433
978.857	229.13482
979.028	220.69599
979.2	170.06972
979.371	184.83451
979.542	161.63315
979.713	153.19692
979.884	134.21663
980.055	108.91229
980.226	125.7815
980.397	161.63315
980.568	159.52406
980.739	216.47669
980.91	111.02086
981.081	178.50662
981.252	142.6521
981.423	161.63315
981.594	155.30595
981.765	184.83451
981.936	269.22351
982.106	186.94385
982.277	100.4782
982.448	252.34322
982.619	104.6952
982.79	92.04447
982.96	102.58669
983.131	113.12946
983.302	111.02086
983.472	167.96055
983.643	92.04447
983.814	54.09713
983.984	125.7815
984.155	129.99903
984.326	85.71941
984.496	144.76102
984.667	127.89025
984.837	83.6111
985.008	153.19692
985.178	79.39455
985.349	176.39736
985.519	104.6952
985.69	140.5432
985.86	134.21663
986.031	111.02086
986.201	121.56407
986.371	66.74543
986.542	195.3814
986.712	70.96171
986.882	178.50662
987.053	102.58669
987.223	140.5432
987.393	66.74543
987.563	94.15287
987.734	104.6952
987.904	108.91229
988.074	73.06989
988.244	83.6111
988.414	100.4782
988.585	138.43433
988.755	136.32547
988.925	70.96171
989.095	92.04447
989.265	66.74543
989.435	62.52924
989.605	83.6111
989.775	98.36974
989.945	102.58669
990.115	108.91229
990.285	66.74543
990.455	134.21663
990.625	64.63732
990.795	119.45538
990.965	66.74543
991.134	41.44967
991.304	49.88122
991.474	134.21663
991.644	127.89025
991.814	119.45538
991.984	102.58669
992.153	83.6111
992.323	98.36974
992.493	62.52924
992.662	79.39455
992.832	66.74543
993.002	-9.13173
993.171	66.74543
993.341	108.91229
993.511	60.42118
993.68	1.40492
993.85	106.80373
994.019	20.37242
994.189	79.39455
994.358	35.12624
994.528	43.55752
994.697	94.15287
994.867	104.6952
995.036	11.94218
995.206	60.42118
995.375	41.44967
995.544	117.34672
995.714	100.4782
995.883	51.98916
996.052	66.74543
996.222	92.04447
996.391	20.37242
996.56	100.4782
996.73	66.74543
996.899	20.37242
997.068	136.32547
997.237	51.98916
997.406	58.31314
997.576	60.42118
997.745	-4.91714
997.914	75.17808
998.083	47.77329
998.252	58.31314
998.421	75.17808
998.59	68.85356
998.759	11.94218
998.928	75.17808
999.097	45.6654
999.266	106.80373
999.435	75.17808
999.604	58.31314
999.773	108.91229
999.942	68.85356
1000.111	85.71941
1000.28	24.58768
1000.448	41.44967
1000.617	9.83468
1000.786	7.72721
1000.955	20.37242
1001.124	28.80304
1001.292	100.4782
1001.461	35.12624
1001.63	-0.70246
1001.798	20.37242
1001.967	-17.56062
1002.136	37.23403
1002.304	148.97893
1002.473	58.31314
1002.642	49.88122
1002.81	-9.13173
1002.979	43.55752
1003.147	16.15725
1003.316	37.23403
1003.484	62.52924
1003.653	75.17808
1003.821	49.88122
1003.99	111.02086
1004.158	43.55752
1004.327	81.50281
1004.495	22.48004
1004.663	47.77329
1004.832	92.04447
1005	41.44967
1005.168	79.39455
1005.337	24.58768
1005.505	-0.70246
1005.673	58.31314
1005.842	33.01848
1006.01	26.69535
1006.178	18.26482
1006.346	24.58768
1006.514	58.31314
1006.683	-30.20322
1006.851	-30.20322
1007.019	24.58768
1007.187	-0.70246
1007.355	62.52924
1007.523	49.88122
1007.691	28.80304
1007.859	5.61975
1008.027	49.88122
1008.195	33.01848
1008.363	16.15725
1008.531	37.23403
1008.699	-4.91714
1008.867	9.83468
1009.035	-0.70246
1009.203	-7.02445
1009.37	11.94218
1009.538	-0.70246
1009.706	-9.13173
1009.874	49.88122
1010.042	83.6111
1010.209	43.55752
1010.377	33.01848
1010.545	11.94218
1010.713	-47.05863
1010.88	3.51233
1011.048	64.63732
1011.216	24.58768
1011.383	87.82774
1011.551	-13.34623
1011.718	-80.7646
1011.886	83.6111
1012.054	102.58669
1012.221	39.34183
1012.389	60.42118
1012.556	94.15287
1012.724	62.52924
1012.891	16.15725
1013.058	-17.56062
1013.226	-7.02445
1013.393	28.80304
1013.561	26.69535
1013.728	20.37242
1013.895	146.86997
1014.063	35.12624
1014.23	11.94218
1014.397	92.04447
1014.565	-4.91714
1014.732	3.51233
1014.899	-9.13173
1015.066	92.04447
1015.233	11.94218
1015.401	60.42118
1015.568	94.15287
1015.735	41.44967
1015.902	30.91075
1016.069	92.04447
1016.236	-38.63112
1016.403	1.40492
1016.57	113.12946
1016.737	28.80304
1016.904	-0.70246
1017.071	85.71941
1017.238	7.72721
1017.405	-25.98912
1017.572	64.63732
1017.739	92.04447
1017.906	87.82774
1018.073	1.40492
1018.24	16.15725
1018.407	51.98916
1018.573	24.58768
1018.74	106.80373
1018.907	75.17808
1019.074	26.69535
1019.241	26.69535
1019.407	-4.91714
1019.574	41.44967
1019.741	77.2863
1019.907	1.40492
1020.074	-25.98912
1020.241	3.51233
1020.407	-30.20322
1020.574	7.72721
1020.74	70.96171
1020.907	66.74543
1021.073	83.6111
1021.24	24.58768
1021.406	1.40492
1021.573	-36.52418
1021.739	-34.41722
1021.906	-21.77492
1022.072	62.52924
1022.239	39.34183
1022.405	9.83468
1022.571	-51.27223
1022.738	-84.97739
1022.904	7.72721
1023.07	37.23403
1023.237	-4.91714
1023.403	-7.02445
1023.569	-9.13173
1023.735	104.6952
1023.902	-25.98912
1024.068	9.83468
1024.234	24.58768
1024.4	1.40492
1024.566	3.51233
1024.732	11.94218
1024.898	35.12624
1025.065	26.69535
1025.231	-42.84492
1025.397	92.04447
1025.563	-34.41722
1025.729	45.6654
1025.895	-38.63112
1026.061	-2.80981
1026.227	35.12624
1026.392	3.51233
1026.558	134.21663
1026.724	22.48004
1026.89	16.15725
1027.056	35.12624
1027.222	22.48004
1027.388	41.44967
1027.553	-30.20322
1027.719	33.01848
1027.885	7.72721
1028.051	43.55752
1028.216	28.80304
1028.382	-34.41722
1028.548	56.20513
1028.713	24.58768
1028.879	7.72721
1029.045	3.51233
1029.21	-4.91714
1029.376	16.15725
1029.541	108.91229
1029.707	51.98916
1029.873	45.6654
1030.038	16.15725
1030.204	-15.45344
1030.369	-15.45344
1030.534	7.72721
1030.7	-25.98912
1030.865	-7.02445
1031.031	58.31314
1031.196	39.34183
1031.361	45.6654
1031.527	-28.09618
1031.692	1.40492
1031.857	-40.73804
1032.023	-32.31023
1032.188	-7.02445
1032.353	45.6654
1032.518	-9.13173
1032.684	18.26482
1032.849	49.88122
1033.014	-70.23219
1033.179	28.80304
1033.344	-0.70246
1033.509	-7.02445
1033.674	51.98916
1033.839	-28.09618
1034.004	3.51233
1034.17	33.01848
1034.335	66.74543
1034.5	16.15725
1034.664	-47.05863
1034.829	33.01848
1034.994	-32.31023
1035.159	66.74543
1035.324	108.91229
1035.489	-4.91714
1035.654	-15.45344
1035.819	-15.45344
1035.984	68.85356
1036.148	35.12624
1036.313	-21.77492
1036.478	-4.91714
1036.643	-2.80981
1036.807	18.26482
1036.972	-9.13173
1037.137	3.51233
1037.301	-25.98912
1037.466	1.40492
1037.631	35.12624
1037.795	-7.02445
1037.96	-4.91714
1038.124	70.96171
1038.289	47.77329
1038.454	33.01848
1038.618	33.01848
1038.783	35.12624
1038.947	-19.66778
1039.111	45.6654
1039.276	66.74543
1039.44	-21.77492
1039.605	30.91075
1039.769	16.15725
1039.933	24.58768
1040.098	37.23403
1040.262	-23.88203
1040.426	51.98916
1040.591	7.72721
1040.755	-84.97739
1040.919	-13.34623
1041.083	20.37242
1041.248	33.01848
1041.412	-63.91243
1041.576	-21.77492
1041.74	1.40492
1041.904	24.58768
1042.068	-42.84492
1042.232	18.26482
1042.397	85.71941
1042.561	-0.70246
1042.725	-30.20322
1042.889	77.2863
1043.053	73.06989
1043.217	26.69535
1043.381	11.94218
1043.544	49.88122
1043.708	-0.70246
1043.872	26.69535
1044.036	20.37242
1044.2	30.91075
1044.364	9.83468
1044.528	117.34672
1044.691	37.23403
1044.855	62.52924
1045.019	51.98916
1045.183	7.72721
1045.346	-15.45344
1045.51	35.12624
1045.674	-42.84492
1045.837	75.17808
1046.001	-32.31023
1046.165	24.58768
1046.328	-51.27223
1046.492	39.34183
1046.655	-82.87101
1046.819	16.15725
1046.983	-25.98912
1047.146	45.6654
1047.31	16.15725
1047.473	49.88122
1047.636	-42.84492
1047.8	41.44967
1047.963	-7.02445
1048.127	26.69535
1048.29	58.31314
