Data from mixed_try1_USB4F045381__5__00070.txt Node

Date: Thu Apr 03 19:51:06 EDT 2025
User: mmckonesweet
Spectrometer: USB4F04538
Trigger mode: 4
Integration Time (sec): 2.700000E-3
Scans to average: 1
Electric dark correction enabled: true
Nonlinearity correction enabled: true
Boxcar width: 0
XAxis mode: Wavelengths
Number of Pixels in Spectrum: 3648
>>>>>Begin Spectral Data<<<<<
345.52	17.73793
345.736	17.73793
345.952	17.73793
346.168	13.52282
346.384	-32.83698
346.6	-24.40881
346.816	11.4153
347.032	21.95313
347.248	26.16843
347.464	-15.98024
347.68	-70.75882
347.896	-11.7658
348.112	-7.55127
348.328	5.09289
348.544	74.65103
348.76	-24.40881
348.975	15.63036
349.191	-24.40881
349.407	9.30781
349.623	95.73419
349.839	-26.51589
350.055	-49.69214
350.27	21.95313
350.486	-39.15785
350.702	-74.97185
350.918	-91.82295
351.133	-41.26476
351.349	24.06077
351.565	17.73793
351.781	-83.39761
351.996	-39.15785
352.212	36.70708
352.428	49.35423
352.644	28.27611
352.859	32.49155
353.075	-11.7658
353.291	0.87808
353.506	-13.87303
353.722	64.1103
353.938	-37.05092
354.153	36.70708
354.369	-24.40881
354.584	89.40901
354.8	-24.40881
355.016	17.73793
355.231	19.84552
355.447	51.46218
355.662	-43.37164
355.878	-5.44397
356.093	-37.05092
356.309	-26.51589
356.524	64.1103
356.74	-34.94396
356.955	78.86748
357.171	-58.11912
357.386	-85.50398
357.602	-56.01241
357.817	-7.55127
358.033	13.52282
358.248	-83.39761
358.464	-20.19457
358.679	5.09289
358.895	30.38382
359.11	32.49155
359.325	-121.30834
359.541	38.81488
359.756	38.81488
359.972	-20.19457
360.187	19.84552
360.402	-53.90568
360.618	59.89417
360.833	-32.83698
361.048	-15.98024
361.264	-96.03546
361.479	-74.97185
361.694	-64.43909
361.909	-49.69214
362.125	-66.54569
362.34	-24.40881
362.555	51.46218
362.77	11.4153
362.986	51.46218
363.201	-64.43909
363.416	51.46218
363.631	9.30781
363.847	-32.83698
364.062	2.98547
364.277	80.97574
364.492	38.81488
364.707	83.08402
364.922	9.30781
365.138	-1.2293
365.353	-62.33245
365.568	-45.4785
365.783	5.09289
365.998	9.30781
366.213	13.52282
366.428	-64.43909
366.643	11.4153
366.858	-7.55127
367.073	-56.01241
367.288	-45.4785
367.503	0.87808
367.718	0.87808
367.933	28.27611
368.148	-45.4785
368.363	-13.87303
368.578	26.16843
368.793	26.16843
369.008	-24.40881
369.223	-53.90568
369.438	-28.62294
369.653	30.38382
369.868	17.73793
370.083	9.30781
370.298	-72.86535
370.513	-58.11912
370.728	5.09289
370.943	-1.2293
371.157	28.27611
371.372	-98.14168
371.587	-39.15785
371.802	-7.55127
372.017	2.98547
372.232	102.05957
372.446	28.27611
372.661	17.73793
372.876	-30.72997
373.091	-28.62294
373.306	36.70708
373.52	9.30781
373.735	47.24632
373.95	-22.3017
374.165	-53.90568
374.379	-66.54569
374.594	47.24632
374.809	19.84552
375.023	83.08402
375.238	0.87808
375.453	13.52282
375.667	43.03055
375.882	26.16843
376.097	-11.7658
376.311	26.16843
376.526	53.57014
376.741	-51.79892
376.955	0.87808
377.17	-28.62294
377.384	-81.29121
377.599	-24.40881
377.813	-51.79892
378.028	11.4153
378.242	34.5993
378.457	-13.87303
378.672	30.38382
378.886	2.98547
379.101	13.52282
379.315	26.16843
379.53	-37.05092
379.744	36.70708
379.958	-24.40881
380.173	129.47183
380.387	-13.87303
380.602	-7.55127
380.816	-7.55127
381.031	-41.26476
381.245	78.86748
381.459	7.20034
381.674	-11.7658
381.888	0.87808
382.103	30.38382
382.317	-43.37164
382.531	-24.40881
382.746	34.5993
382.96	93.62577
383.174	-28.62294
383.388	15.63036
383.603	-37.05092
383.817	30.38382
384.031	-20.19457
384.246	68.32652
384.46	-15.98024
384.674	-15.98024
384.888	-3.33665
385.103	-24.40881
385.317	0.87808
385.531	-41.26476
385.745	-7.55127
385.959	-30.72997
386.174	-13.87303
386.388	-15.98024
386.602	30.38382
386.816	0.87808
387.03	19.84552
387.244	-24.40881
387.458	17.73793
387.672	-32.83698
387.887	-24.40881
388.101	36.70708
388.315	0.87808
388.529	-1.2293
388.743	38.81488
388.957	-15.98024
389.171	-66.54569
389.385	-7.55127
389.599	64.1103
389.813	30.38382
390.027	28.27611
390.241	-13.87303
390.455	5.09289
390.669	-20.19457
390.883	34.5993
391.097	-24.40881
391.311	-9.65855
391.525	28.27611
391.738	28.27611
391.952	19.84552
392.166	-37.05092
392.38	38.81488
392.594	-49.69214
392.808	0.87808
393.022	-53.90568
393.236	9.30781
393.449	-49.69214
393.663	9.30781
393.877	28.27611
394.091	19.84552
394.305	-47.58533
394.518	-5.44397
394.732	-32.83698
394.946	9.30781
395.16	102.05957
395.373	34.5993
395.587	-24.40881
395.801	36.70708
396.015	17.73793
396.228	-18.08741
396.442	15.63036
396.656	9.30781
396.869	-45.4785
397.083	-13.87303
397.297	32.49155
397.51	0.87808
397.724	2.98547
397.938	-58.11912
398.151	15.63036
398.365	34.5993
398.578	57.78613
398.792	34.5993
399.005	11.4153
399.219	7.20034
399.433	53.57014
399.646	28.27611
399.86	51.46218
400.073	-32.83698
400.287	11.4153
400.5	17.73793
400.714	104.16807
400.927	-49.69214
401.141	9.30781
401.354	30.38382
401.567	59.89417
401.781	80.97574
401.994	-22.3017
402.208	7.20034
402.421	89.40901
402.635	-7.55127
402.848	11.4153
403.061	-9.65855
403.275	40.92271
403.488	-1.2293
403.701	-22.3017
403.915	78.86748
404.128	112.60231
404.341	2.98547
404.555	43.03055
404.768	30.38382
404.981	9.30781
405.195	53.57014
405.408	70.43467
405.621	9.30781
405.834	68.32652
406.048	-13.87303
406.261	26.16843
406.474	49.35423
406.687	-32.83698
406.9	17.73793
407.114	68.32652
407.327	-22.3017
407.54	0.87808
407.753	17.73793
407.966	34.5993
408.179	0.87808
408.392	-62.33245
408.605	-9.65855
408.819	-72.86535
409.032	70.43467
409.245	43.03055
409.458	68.32652
409.671	13.52282
409.884	76.75925
410.097	34.5993
410.31	-5.44397
410.523	85.19233
410.736	76.75925
410.949	17.73793
411.162	-83.39761
411.375	43.03055
411.588	62.00222
411.801	-39.15785
412.014	-3.33665
412.227	64.1103
412.44	53.57014
412.653	-24.40881
412.865	45.13842
413.078	28.27611
413.291	-43.37164
413.504	53.57014
413.717	43.03055
413.93	47.24632
414.143	30.38382
414.356	121.0369
414.568	70.43467
414.781	43.03055
414.994	45.13842
415.207	11.4153
415.42	89.40901
415.632	-7.55127
415.845	72.54284
416.058	102.05957
416.271	72.54284
416.483	40.92271
416.696	80.97574
416.909	104.16807
417.121	-11.7658
417.334	51.46218
417.547	78.86748
417.759	-24.40881
417.972	21.95313
418.185	85.19233
418.397	51.46218
418.61	112.60231
418.823	68.32652
419.035	26.16843
419.248	135.79826
419.46	70.43467
419.673	95.73419
419.885	53.57014
420.098	104.16807
420.311	40.92271
420.523	93.62577
420.736	68.32652
420.948	51.46218
421.161	53.57014
421.373	59.89417
421.586	43.03055
421.798	93.62577
422.01	43.03055
422.223	38.81488
422.435	76.75925
422.648	76.75925
422.86	66.2184
423.073	53.57014
423.285	118.92822
423.497	68.32652
423.71	123.1456
423.922	123.1456
424.134	85.19233
424.347	110.49372
424.559	89.40901
424.771	131.58062
424.984	70.43467
425.196	59.89417
425.408	110.49372
425.621	137.90711
425.833	121.0369
426.045	152.66967
426.257	78.86748
426.47	89.40901
426.682	106.2766
426.894	106.2766
427.106	112.60231
427.318	97.84262
427.531	102.05957
427.743	161.10588
427.955	72.54284
428.167	186.41651
428.379	87.30066
428.591	175.87005
428.804	123.1456
429.016	188.52586
429.228	123.1456
429.44	154.77869
429.652	171.65161
429.864	118.92822
430.076	127.36306
430.288	144.23379
430.5	123.1456
430.712	127.36306
430.924	169.54242
431.136	110.49372
431.348	194.85404
431.56	237.04651
431.772	140.01598
431.984	188.52586
432.196	150.56067
432.408	211.73008
432.62	220.16857
432.832	182.19786
433.044	249.70578
433.256	205.40141
433.468	270.8061
433.679	213.83967
433.891	241.26619
434.103	264.47581
434.315	253.9257
434.527	270.8061
434.739	323.56502
434.95	260.25571
435.162	228.60739
435.374	169.54242
435.586	285.57744
435.798	319.34389
436.009	209.6205
436.221	211.73008
436.433	291.9083
436.645	241.26619
436.856	211.73008
437.068	266.58589
437.28	272.91624
437.491	308.79138
437.703	300.34969
437.915	365.78019
438.126	346.78251
438.338	291.9083
438.55	283.46719
438.761	338.33954
438.973	317.23335
439.184	287.68771
439.396	397.44606
439.608	363.66927
439.819	355.22575
440.031	319.34389
440.242	376.33506
440.454	313.01233
440.665	391.11258
440.877	325.67561
441.088	327.78622
441.3	380.55713
441.511	313.01233
441.723	454.45383
441.934	332.0075
442.146	359.44748
442.357	374.22406
442.569	372.11307
442.78	414.33604
442.991	393.22373
443.203	509.36083
443.414	422.78141
443.626	357.33661
443.837	397.44606
444.048	433.33849
444.26	389.00146
444.471	408.00217
444.682	456.56545
444.894	376.33506
445.105	422.78141
445.316	576.95198
445.528	372.11307
445.739	496.6891
445.95	585.40185
446.161	490.35343
446.373	465.01208
446.584	568.50232
446.795	513.58486
447.006	469.23549
447.217	534.70585
447.429	587.51435
447.64	534.70585
447.851	676.25072
448.062	566.38994
448.273	617.09072
448.484	598.07705
448.695	526.25728
448.907	595.96448
449.118	574.83955
449.329	602.30222
449.54	710.06055
449.751	650.89528
449.962	545.26687
450.173	541.04242
450.384	712.17376
450.595	674.1377
450.806	729.07982
451.017	729.07982
451.228	661.45984
451.439	741.75982
451.65	712.17376
451.861	701.60782
452.072	828.41614
452.283	794.5971
452.494	779.80203
452.705	710.06055
452.915	845.32654
453.126	794.5971
453.337	769.23442
453.548	811.50632
453.759	915.08767
453.97	881.26297
454.181	976.39985
454.391	790.36989
454.602	951.02856
454.813	1075.77955
455.024	1090.58185
455.235	912.97357
455.445	1001.77211
455.656	932.00077
455.867	1084.23797
456.078	989.08586
456.288	870.69318
456.499	997.54333
456.71	938.3433
456.921	1022.91636
457.131	1137.10491
457.342	1001.77211
457.553	1048.29025
457.763	1181.51525
457.974	1302.06503
458.184	1251.30612
458.395	1287.26021
458.606	1194.20423
458.816	1363.40023
459.027	1496.64814
459.237	1365.51526
459.448	1456.46219
459.659	1323.21494
459.869	1445.88693
460.08	1625.66389
460.29	1617.20403
460.501	1632.00877
460.711	1722.94941
460.922	1566.4442
461.132	1564.32919
461.343	1729.2939
461.553	1676.42229
461.764	1813.88384
461.974	1733.52354
462.184	1699.68604
462.395	1851.94711
462.605	1942.8694
462.816	1782.16336
463.026	1944.98375
463.236	2076.06109
463.447	2143.70332
463.657	1964.01264
463.867	2124.67973
464.078	2293.75443
464.288	2200.77014
464.498	2122.56596
464.709	2181.74854
464.919	2350.80405
465.129	2426.85886
465.339	2316.99772
465.55	2507.12396
465.76	2437.42096
465.97	2416.2965
466.18	2570.47961
466.391	2667.60399
466.601	2612.71079
466.811	2697.15834
467.021	2629.60191
467.231	2958.80966
467.441	2815.34992
467.651	2958.80966
467.862	2944.04484
468.072	3205.48124
468.282	3167.54594
468.492	3068.46799
468.702	3264.48105
468.912	3342.42473
469.122	3154.89967
469.332	3439.29454
469.542	3481.40012
469.752	3542.44031
469.962	3525.60317
470.172	3725.4669
470.382	3618.19276
470.592	3826.38492
470.802	3811.67052
471.012	3834.79272
471.222	4099.47313
471.432	4095.2744
471.642	4028.08338
471.852	4246.37586
472.062	4212.80723
472.272	4460.24634
472.482	4627.82833
472.691	4590.13478
472.901	4514.72604
473.111	4556.62334
473.321	4738.77269
473.531	4887.29662
473.741	4887.29662
473.95	4989.73183
474.16	4924.93229
474.37	5296.70412
474.58	5317.56829
474.79	5442.70407
474.999	5359.2896
475.209	5186.08499
475.419	5369.71847
475.628	5844.64932
475.838	5705.21349
476.048	5667.73506
476.258	5913.28774
476.467	6114.89445
476.677	6004.76567
476.886	6403.40959
477.096	6420.00103
477.306	6502.93594
477.515	6274.77526
477.725	6289.30299
477.935	6353.6263
478.144	6672.83666
478.354	6459.39975
478.563	6923.26196
478.773	7086.58368
478.982	7274.54098
479.192	7125.84271
479.401	7113.446
479.611	7123.77665
479.82	7480.87744
480.03	7437.56483
480.239	7656.09357
480.449	7839.39109
480.658	7950.52491
480.868	8174.66942
481.077	8143.83804
481.287	7783.80151
481.496	8026.63762
481.705	8355.45719
481.915	8248.64648
482.124	8252.75556
482.333	8464.2679
482.543	8454.00505
482.752	8872.34904
482.961	8956.33625
483.171	9005.48567
483.38	8935.85432
483.589	9433.07782
483.799	9068.95541
484.008	9369.70118
484.217	9126.26859
484.426	9582.25842
484.636	9435.12197
484.845	9588.38732
485.054	9684.3884
485.263	10027.26791
485.472	9837.51145
485.682	10066.01998
485.891	10025.22819
486.1	9780.35547
486.309	10121.07994
486.518	10418.63831
486.727	10320.84251
486.936	10732.20121
487.146	10443.08255
487.355	10833.94507
487.564	10854.29033
487.773	11092.24548
487.982	10783.07683
488.191	11214.21571
488.4	11256.89636
488.609	11014.97764
488.818	11303.63664
489.027	11693.61481
489.236	11661.12978
489.445	11521.01135
489.654	11273.15446
489.863	11685.49377
490.072	11646.91685
490.281	11604.27541
490.49	11886.44872
490.698	12136.00749
490.907	12227.28041
491.116	12426.00246
491.325	12359.09328
491.534	12383.42475
491.743	12123.83663
491.952	12685.46225
492.16	12638.84806
492.369	12973.18759
492.578	12940.77328
492.787	12831.36502
492.996	12967.11001
493.204	12997.49747
493.413	12952.9288
493.622	13145.36728
493.831	12944.82514
494.039	13086.62755
494.248	13331.68884
494.457	13287.13703
494.665	13572.64039
494.874	13570.6158
495.083	13939.0371
495.291	13979.51715
495.5	13700.18227
495.709	13882.36327
495.917	14013.92439
496.126	13930.94097
496.335	13870.2186
496.543	14189.99804
496.752	14303.3245
496.96	14351.89124
497.169	14252.73306
497.377	14612.92263
497.586	14497.58598
497.794	14782.88618
498.003	14432.83372
498.211	14829.42279
498.42	14691.83508
498.628	15031.75257
498.837	14669.57788
499.045	15011.51977
499.254	14817.28284
499.462	15242.17291
499.671	15207.77728
499.879	15416.17534
500.087	15476.87454
500.296	15549.71425
500.504	15355.47655
500.713	15225.98673
500.921	15553.76092
501.129	15663.0223
501.338	15531.50424
501.546	15994.87091
501.754	15687.30293
501.962	16000.94162
502.171	15976.65886
502.379	16249.85254
502.587	16073.79115
502.795	16148.66632
503.004	16049.50776
503.212	16399.61635
503.42	16298.42348
503.628	16399.61635
503.837	16618.2102
504.045	16357.11477
504.253	16727.51675
504.461	16703.22582
504.669	16480.57418
504.877	17019.0358
505.085	16703.22582
505.294	16976.51927
505.502	16806.46466
505.71	17106.09721
505.918	17004.86349
506.126	17079.77578
506.334	17079.77578
506.542	17201.26328
506.75	16719.41973
506.958	17146.59264
507.166	17288.3357
507.374	17371.36336
507.582	17569.84076
507.79	17521.23125
507.998	17476.67414
508.206	17845.33048
508.414	17452.3709
508.622	17770.37492
508.83	17630.60527
509.037	17849.38226
509.245	17642.75853
509.453	17800.76175
509.661	18412.71946
509.869	18187.75606
510.077	18084.40977
510.285	18323.53927
510.492	18141.14774
510.7	18133.04214
510.908	17920.29074
511.116	18485.69054
511.324	18165.46488
511.531	18345.83363
511.739	18481.63646
511.947	18599.211
512.155	18404.61187
512.362	18597.18374
512.57	18522.17794
512.778	18692.46907
512.985	18692.46907
513.193	18733.01864
513.401	19122.37573
513.608	18797.90124
513.816	18797.90124
514.024	18686.38677
514.231	19049.35996
514.439	18978.37744
514.646	19136.57385
514.854	19264.366
515.061	18992.57355
515.269	19197.42523
515.477	19000.6857
515.684	19315.08169
515.892	19367.82874
516.099	19325.22514
516.307	19244.08045
516.514	19828.47055
516.722	19783.81742
516.929	19641.75278
517.136	19377.97273
517.344	19753.37327
517.551	19763.52121
517.759	20128.9172
517.966	19990.86271
518.173	19605.22519
518.381	20059.88752
518.588	20269.02179
518.796	20226.37915
519.003	20037.55543
519.21	20315.72777
519.418	20338.0662
519.625	19976.65232
519.832	20470.07635
520.039	20468.04529
520.247	20616.32363
520.454	20539.13486
520.661	20927.17071
520.868	20693.51841
521.076	20957.65113
521.283	20856.05335
521.49	20862.14893
521.697	21022.6791
521.904	21203.56017
522.112	20699.61299
522.319	21095.84059
522.526	20587.88496
522.733	21319.42223
522.94	21055.19466
523.147	21268.60392
523.354	21329.58619
523.561	21669.11986
523.768	21477.99148
523.975	21640.65172
524.183	21514.58782
524.39	21728.092
524.597	21980.28548
524.804	21858.24899
525.011	21748.42799
525.218	21878.58745
525.425	21602.01763
525.632	21945.70708
525.838	21593.88431
526.045	21660.98603
526.252	21929.43527
526.459	22096.23283
526.666	21959.94511
526.873	22474.67136
527.08	22234.57192
527.287	22600.84545
527.494	22438.04275
527.701	22741.28098
527.907	22543.86191
528.114	22706.67937
528.321	22244.74459
528.528	22623.2326
528.735	22696.50262
528.941	22810.48719
529.148	22727.03313
529.355	22859.34103
529.562	22678.18469
529.768	23081.24342
529.975	22472.63641
530.182	23337.80328
530.388	23018.12951
530.595	23293.00343
530.802	22814.55826
531.008	23470.17543
531.215	24018.12864
531.422	23675.88729
531.628	23722.73688
531.835	23675.88729
532.042	23818.47787
532.248	23908.11358
532.455	23572.00909
532.661	23938.67249
532.868	23820.51498
533.074	24050.72727
533.281	23891.81577
533.487	24295.23954
533.694	23857.18351
533.9	24362.48722
534.107	24134.26453
534.313	24331.91973
534.52	24276.89977
534.726	24437.88952
534.933	24252.44707
535.139	24362.48722
535.345	24533.67593
535.552	24672.2704
535.758	25018.8056
535.965	25090.15942
536.171	24662.07924
536.377	24910.76085
536.584	24943.37745
536.79	24882.22181
536.996	25192.0982
537.203	24959.68597
537.409	24806.79945
537.615	25120.74047
537.821	24961.72455
538.028	25328.7047
538.234	25159.47719
538.44	25149.28324
538.646	25206.37006
538.853	25432.69515
539.059	25428.61699
539.265	25634.57417
539.471	25899.69693
539.677	25932.32962
539.883	26224.00454
540.09	26119.9765
540.296	26177.08938
540.502	26230.12397
540.708	26091.42057
540.914	26068.98401
541.12	26028.19082
541.326	26450.43357
541.532	26446.35359
541.738	26417.79391
541.944	26281.11985
542.15	26562.63551
542.356	26432.07371
542.562	26474.91359
542.768	26379.03485
542.974	26434.11369
543.18	26407.5941
543.386	26778.89241
543.592	26854.38224
543.798	26862.54343
544.004	26770.73146
544.21	27119.63226
544.415	26723.8065
544.621	26997.20624
544.827	27025.77187
545.033	27166.56354
545.239	27333.88945
545.445	27544.07938
545.651	26956.39868
545.856	27333.88945
546.062	27403.27105
546.268	27295.11803
546.474	26942.11616
546.679	27170.64455
546.885	26878.86586
547.091	27180.84711
547.297	27174.72557
547.502	27699.17939
547.708	27325.72701
547.914	27909.3917
548.119	28358.42919
548.325	27411.43369
548.531	27280.83394
548.736	27609.3838
548.942	27335.93007
549.147	27421.63702
549.353	27868.57281
549.559	28003.27689
549.764	27919.5965
549.97	27776.732
550.175	28242.08253
550.381	28709.53137
550.586	28019.60499
550.792	28736.06943
550.997	28709.53137
551.203	28470.69682
551.408	28591.13295
551.614	28462.53179
551.819	28787.10466
552.025	28525.8112
552.23	28754.44204
552.435	28944.29724
552.641	28836.09909
552.846	28960.62929
553.052	28815.68467
553.257	29189.28496
553.462	29385.28593
553.668	29524.1258
553.873	29121.91185
554.078	29148.45264
554.283	29238.2843
554.489	29471.03939
554.694	29479.20649
554.899	29123.95344
555.105	29375.07731
555.31	29464.91408
555.515	29544.54385
555.72	29948.84336
555.925	29842.65952
556.131	29844.70149
556.336	29797.7365
556.541	29716.05963
556.746	29752.814
556.951	29856.95333
557.156	29622.13338
557.361	29781.40098
557.567	30034.60944
557.772	30052.98815
557.977	29750.77208
558.182	29775.27518
558.387	30128.54604
558.592	30310.29995
558.797	30461.42846
559.002	30183.68388
559.207	30204.10552
559.412	30426.70915
559.617	29738.52059
559.822	29993.7682
560.027	30240.86476
560.232	30373.60973
560.437	30128.54604
560.642	30461.42846
560.847	30622.7759
561.051	30434.87837
561.256	30428.75145
561.461	30720.81373
561.666	30782.08893
561.871	30547.20712
562.076	30959.79398
562.281	30892.38738
562.485	30251.07574
562.69	30786.17399
562.895	30312.34219
563.1	30771.87632
563.305	30673.83689
563.509	31023.11674
563.714	31039.45832
563.919	31080.31269
564.123	31249.86468
564.328	30914.85607
564.533	30902.6004
564.737	30865.83368
564.942	31133.42425
565.147	31527.7081
565.351	31307.06532
565.556	30843.36535
565.761	31468.45955
565.965	31680.94372
566.17	31294.80793
566.374	31685.03013
566.579	32022.18472
566.784	31392.86859
566.988	31603.30312
567.193	31717.72172
567.397	31593.08744
567.602	31497.06212
567.806	31049.67186
568.011	31736.11094
568.215	32085.53471
568.42	31768.80325
568.624	31932.27184
568.828	31975.18434
569.033	32005.83665
569.237	32293.99041
569.442	31866.88297
569.646	31615.562
569.85	31856.66614
570.055	32101.88341
570.259	32163.19217
570.463	32214.28421
570.668	32163.19217
570.872	31564.48377
571.076	32206.1094
571.281	32463.63246
571.485	32375.74373
571.689	32009.92365
571.893	32529.04073
572.098	32596.49547
572.302	32520.86457
572.506	32563.78983
572.71	32829.54097
572.914	32854.07394
573.119	32277.64016
573.323	32539.26098
573.527	32302.16558
573.731	32770.25445
573.935	32637.37838
574.139	33007.41343
574.343	32287.85905
574.547	32833.62977
574.751	32608.76025
574.955	32845.89625
575.159	32743.67841
575.364	32954.25408
575.568	33160.76789
575.772	32856.11837
575.976	32514.73247
576.18	33150.54378
576.383	33177.12661
576.587	33027.85981
576.791	33334.58863
576.995	33128.05098
577.199	33344.81402
577.403	32997.19034
577.607	33868.45791
577.811	33692.52287
578.015	32993.10112
578.219	33717.07047
578.422	33447.0721
578.626	33577.97354
578.83	33430.71031
579.034	33862.32022
579.238	33428.66509
579.442	33907.33065
579.645	33580.01898
579.849	33817.31145
580.053	33978.9416
580.257	33522.74795
580.46	34009.63332
580.664	34081.25047
580.868	34107.85225
581.071	34148.77928
581.275	34357.53043
581.479	34265.42946
581.682	33778.44155
581.886	34011.67947
582.09	34273.6159
582.293	34402.56044
582.497	34324.78252
582.7	34619.55039
582.904	34551.992
583.107	34564.27501
583.311	34189.70778
583.515	34656.40233
583.718	34615.45581
583.922	34719.87277
584.125	34803.82388
584.329	34930.78835
584.532	34556.08632
584.735	35027.04713
584.939	34814.06232
585.142	34795.6332
585.346	34609.31398
585.549	34777.20444
585.753	34904.16534
585.956	34801.7762
586.159	35113.07425
586.363	35213.44973
586.566	35074.1562
586.769	34666.63922
586.973	34916.45279
587.176	35162.23632
587.379	35242.13056
587.582	35369.15719
587.786	35317.93449
587.989	35473.66123
588.192	35324.08105
588.395	35483.90744
588.599	35408.08853
588.802	35906.16627
589.005	35246.2279
589.208	36002.5396
589.411	35666.31168
589.615	35668.3614
589.818	35545.38739
590.021	35401.94136
590.224	35481.85819
590.427	35748.30482
590.63	36080.46774
590.833	36084.56945
591.036	35631.4672
591.239	36265.06829
591.442	35797.50487
591.645	36263.0169
591.848	35848.7583
592.051	35797.50487
592.254	35869.26064
592.457	36382.00727
592.66	36509.22699
592.863	36484.60192
593.066	36634.41866
593.269	36269.17107
593.472	36677.52301
593.675	37201.17149
593.878	36390.21427
594.081	36886.92872
594.284	36129.68985
594.486	36634.41866
594.689	36542.06183
594.892	36217.88799
595.095	36585.16005
595.298	36496.91434
595.5	36817.11905
595.703	37322.3948
595.906	36724.73588
596.109	36921.83651
596.311	37063.54162
596.514	36964.96065
596.717	37355.27332
596.92	37918.6219
597.122	37630.70661
597.325	37322.3948
597.528	36790.42918
597.73	37172.41036
597.933	37069.70347
598.136	37560.80758
598.338	37155.97605
598.541	37371.71329
598.743	37591.64429
598.946	37400.4844
599.148	36956.74629
599.351	36977.28239
599.554	37262.80728
599.756	37250.4796
599.959	37601.92357
600.161	37427.20173
600.363	37743.79762
600.566	37939.19329
600.768	38184.05626
600.971	37762.30569
601.173	38052.35063
601.376	38270.50689
601.578	37912.45064
601.78	38247.8636
601.983	37731.45927
602.185	37682.10867
602.388	38000.91239
602.59	37865.14007
602.792	38241.68834
602.995	37789.04071
603.197	37546.41771
603.399	37889.82331
603.601	37677.99633
603.804	37439.53324
604.006	37527.917
604.208	37377.87841
604.41	38130.5467
604.613	37935.07895
604.815	38138.77857
605.017	38478.46237
605.219	37918.6219
605.421	37305.95624
605.623	38021.48706
605.826	38289.03399
606.028	37821.9472
606.23	37947.42208
606.432	37885.70936
606.634	38087.33159
606.836	38410.50673
607.038	38867.85094
607.24	38229.33805
607.442	38155.24271
607.644	38342.56063
607.846	38702.99076
608.048	38911.13657
608.25	38838.99614
608.452	39071.94808
608.654	39067.82399
608.856	38301.38577
609.058	38433.15755
609.26	38326.09027
609.462	38740.07917
609.664	38715.35324
609.866	38441.39447
610.067	37994.74015
610.269	38546.42762
610.471	38202.58013
610.673	38282.85821
610.875	38859.60653
611.077	38492.87843
611.278	38165.53307
611.48	38647.36368
611.682	38476.40297
611.884	38933.81163
612.085	38416.68412
612.287	38746.26086
612.489	38420.80243
612.69	38987.41177
612.892	38977.10356
613.094	38861.66762
613.295	38637.06309
613.497	39082.25848
613.699	39043.08023
613.9	38750.38203
614.102	38672.08601
614.304	38426.97995
614.505	38511.41401
614.707	38956.48784
614.908	38029.71716
615.11	38243.74675
615.311	37817.83377
615.513	38614.40259
615.714	38459.92806
615.916	38855.48438
616.117	39022.46147
616.319	38999.78194
616.52	38789.535
616.722	38389.916
616.923	38278.74107
617.124	38523.77146
617.326	38181.99809
617.527	39038.9564
617.729	39028.647
617.93	38418.74327
618.131	38459.92806
618.333	38402.27034
618.534	38838.99614
618.735	38886.40142
618.937	38612.3426
619.138	39026.58515
619.339	38474.34357
619.54	39257.57218
619.742	39164.75034
619.943	39080.19638
620.144	38869.91207
620.345	38810.14316
620.546	38832.81321
620.748	39055.45194
620.949	38593.80309
621.15	38871.97321
621.351	38882.27903
621.552	38266.38985
621.753	38917.32056
621.954	39177.12545
622.155	38445.51299
622.356	39323.59087
622.558	39191.56352
622.759	39121.4402
622.96	38723.59507
623.161	38824.56943
623.362	38867.85094
623.563	39441.21171
623.764	39201.87671
623.965	39278.20194
624.166	38863.72872
624.366	38680.32708
624.567	38744.20029
624.768	38764.80643
624.969	38665.9053
625.17	38690.62861
625.371	38801.89979
625.572	38919.38191
625.773	38670.02576
625.973	38744.20029
626.174	38729.77654
626.375	38729.77654
626.576	39315.33798
626.777	38981.22682
626.977	39255.50926
627.178	39439.14791
627.379	39168.87534
627.58	38773.04914
627.78	39298.83268
627.981	39218.37833
628.182	39430.8928
628.382	39282.32801
628.583	39230.75496
628.784	38760.68512
628.984	38672.08601
629.185	39127.6271
629.386	38878.15667
629.586	39109.06665
629.787	38727.71604
629.987	39051.32799
630.188	39061.63792
630.388	38882.27903
630.589	38962.67246
630.79	39366.92111
630.99	39765.35423
631.191	39697.20145
631.391	40054.6139
631.591	39769.48507
631.792	38983.28846
631.992	39569.18707
632.193	39465.97812
632.393	38979.16518
632.594	39317.40119
632.794	39315.33798
632.994	38995.65852
633.195	39562.99382
633.395	39699.26652
633.595	39949.21679
633.796	39835.58407
633.996	39936.81894
634.196	39540.28602
634.397	39845.91301
634.597	39333.9072
634.797	39988.47915
634.997	39771.5505
635.198	39389.61965
635.398	39360.73081
635.598	40023.61187
635.798	39746.76599
635.998	39635.2541
636.199	39891.36343
636.399	39364.85767
636.599	39078.13429
636.799	39786.00882
636.999	39319.4644
637.199	39571.25151
637.399	39750.89664
637.599	39571.25151
637.799	39216.3156
637.999	39676.55131
638.199	39812.86134
638.399	39796.3365
638.599	39662.09682
638.799	40114.55798
638.999	40002.94519
639.199	39936.81894
639.399	40023.61187
639.599	39843.8472
639.799	39300.89581
639.999	39777.74686
640.199	39802.53324
640.399	40069.08233
640.599	38649.42382
640.799	40538.56196
640.998	39593.96099
641.198	39604.28388
641.398	39216.3156
641.598	39788.07433
641.798	39719.91779
641.997	39432.95656
642.197	39819.05832
642.397	39953.34949
642.597	39647.64283
642.796	39974.01362
642.996	39668.29154
643.196	40381.31625
643.395	39678.61627
643.595	40110.42362
643.795	40021.54516
643.994	40209.66029
644.194	40424.7593
644.394	40631.69845
644.593	40044.27962
644.793	39959.54862
644.992	39771.5505
645.192	39794.27094
645.392	39593.96099
645.591	39709.59203
645.791	39819.05832
645.99	39957.48223
646.19	39881.03334
646.389	40275.83196
646.589	39949.21679
646.788	40141.4324
646.987	39548.54326
647.187	40009.14508
647.386	40126.96133
647.586	40534.42309
647.785	40621.34882
647.984	40292.37663
648.184	40373.04194
648.383	40277.90001
648.582	40069.08233
648.782	40728.9988
648.981	40540.63141
649.18	40720.71694
649.38	40909.17465
649.579	40830.46644
649.778	40381.31625
649.977	40987.8996
650.177	40983.75576
650.376	40466.13818
650.575	40259.288
650.774	39955.41585
650.973	40143.49974
651.173	40265.4919
651.372	40356.49385
651.571	40170.37612
651.77	39878.96736
651.969	40379.24766
652.168	40036.0124
652.367	40199.32197
652.566	40493.03684
652.765	40755.9161
652.964	40720.71694
653.163	40847.0352
653.362	41060.42432
653.561	40936.10498
653.76	40488.89847
653.959	40257.22005
654.158	40919.53223
654.357	39734.3743
654.556	40687.59132
654.755	41305.04273
654.954	40186.91635
655.153	40186.91635
655.352	40530.28426
655.551	40255.15211
655.749	40882.24627
655.948	40584.0925
656.147	40683.45083
656.346	40909.17465
656.545	40207.5926
656.743	40354.42538
656.942	40805.61467
657.141	40652.39855
657.34	40490.96765
657.538	40069.08233
657.737	40443.37925
657.936	40515.79872
658.135	40282.03613
658.333	40232.40554
658.532	40255.15211
658.731	40637.90836
658.929	40967.18087
659.128	40435.10361
659.326	40286.1723
659.525	40994.11544
659.724	40588.23191
659.922	40685.52107
660.121	40234.47336
660.319	39974.01362
660.518	40329.60469
660.716	40588.23191
660.915	41037.62929
661.113	40573.74417
661.312	40439.2414
661.51	41070.78617
661.709	41282.23232
661.907	40815.96937
662.105	40553.04836
662.304	41047.99049
662.502	41014.83568
662.701	41276.01155
662.899	41072.85858
663.097	40567.53531
663.296	41388.00188
663.494	41217.95622
663.692	40399.93411
663.891	40867.74719
664.089	40284.10421
664.287	40590.30164
664.485	40644.11837
664.684	40898.81735
664.882	40871.88973
665.08	40838.75073
665.278	40399.93411
665.476	40540.63141
665.675	40751.77485
665.873	40306.85379
666.071	40038.07919
666.269	40265.4919
666.467	40590.30164
666.665	40888.46034
666.863	40000.87858
667.061	40116.62518
667.259	40191.05151
667.457	40445.44819
667.655	39847.97882
667.853	40050.48016
668.051	40766.26943
668.249	40240.67687
668.447	40658.6088
668.645	40093.88659
668.843	39819.05832
669.041	39610.47774
669.239	39243.13193
669.437	40089.75244
669.635	40300.64923
669.833	40033.94562
670.031	39352.47721
670.229	39488.68193
670.426	39267.88694
670.624	39472.16994
670.822	39389.61965
671.02	39978.14658
671.218	40100.08789
671.415	39786.00882
671.613	39608.41311
671.811	39542.35032
672.009	39949.21679
672.206	40067.01538
672.404	39992.61225
672.602	39709.59203
672.799	40186.91635
672.997	40462.00009
673.195	40257.22005
673.392	39800.46765
673.59	39672.4214
673.788	39872.76946
673.985	39759.15806
674.183	40098.02078
674.38	40193.11911
674.578	40778.69379
674.775	39994.67882
674.973	39680.68125
675.17	39707.5269
675.368	39191.56352
675.565	39121.4402
675.763	40126.96133
675.96	40275.83196
676.158	40077.35025
676.355	39938.88522
676.553	40414.41528
676.75	39740.5701
676.947	40062.88151
677.145	39614.60703
677.342	39426.7653
677.539	39142.06354
677.737	39383.42902
677.934	39670.35646
678.131	39734.3743
678.329	39755.02733
678.526	39786.00882
678.723	40135.23045
678.92	39693.07134
679.118	39505.19455
679.315	38414.62498
679.512	38822.50851
679.709	39445.33934
679.906	39585.70285
680.104	39053.38996
680.301	39519.64363
680.498	39193.62614
680.695	39302.95895
680.892	39424.70157
681.089	38818.38669
681.286	38624.70268
681.483	38118.19915
681.68	38599.98284
681.877	39008.02891
682.075	38760.68512
682.272	38711.23237
682.469	38799.83897
682.665	38721.5346
682.862	38838.99614
683.059	38237.57154
683.256	38536.12924
683.453	38375.50301
683.65	38264.33134
683.847	38513.47356
684.044	38319.91403
684.241	38443.45372
684.438	39123.50249
684.635	38464.04674
684.831	38622.64265
685.028	38818.38669
685.225	38614.40259
685.422	38377.56198
685.619	38074.98509
685.815	37937.13612
686.012	38503.17589
686.209	37805.4937
686.405	38311.67916
686.602	37747.91047
686.799	37486.80653
686.996	37955.651
687.192	37749.96691
687.389	37780.81441
687.586	37752.02335
687.782	38208.75491
687.979	37708.83968
688.175	37178.57334
688.372	37626.59465
688.568	37445.69909
688.765	37589.58845
688.962	38046.17776
689.158	37616.3149
689.355	37939.19329
689.551	38179.93994
689.748	37632.7626
689.944	37807.55036
690.14	37338.83382
690.337	37299.79191
690.533	37517.6391
690.73	37234.0431
690.926	37784.92754
691.123	37587.53263
691.319	37680.0525
691.515	37805.4937
691.712	37429.25697
691.908	37178.57334
692.104	37455.97567
692.301	37453.92034
692.497	37234.0431
692.693	37227.87953
692.889	37542.30639
693.086	37404.59467
693.282	37427.20173
693.478	37155.97605
693.674	36919.78305
693.87	36070.21356
694.067	36936.21088
694.263	37338.83382
694.459	37760.24921
694.655	37643.04266
694.851	37166.24744
695.047	36845.86325
695.243	36886.92872
695.439	36572.84599
695.635	36917.72961
695.831	36917.72961
696.027	36533.85297
696.224	36574.89831
696.42	36420.99139
696.615	37014.24912
696.811	36511.27912
697.007	36763.74045
697.203	35926.67018
697.399	36221.9905
697.595	36053.80717
697.791	35797.50487
697.987	35949.22514
698.183	36416.88769
698.379	36392.26603
698.575	36921.83651
698.77	37049.16423
698.966	36375.85209
699.162	36400.47315
699.358	36314.30332
699.554	35897.96486
699.749	36107.12929
699.945	36203.5294
700.141	36027.14758
700.337	36205.58061
700.532	36164.55756
700.728	36244.55472
700.924	36478.4458
701.119	36197.37581
701.315	35924.61976
701.511	36031.24899
701.706	36139.94488
701.902	35740.10511
702.097	36529.74857
702.293	35957.42711
702.489	35725.75584
702.684	36082.51859
702.88	35975.88189
703.075	35537.18979
703.271	35740.10511
703.466	35977.93244
703.662	36045.60411
703.857	35500.30164
704.053	35951.27562
704.248	36027.14758
704.443	36295.83977
704.639	35875.41145
704.834	36234.29816
705.03	35363.0103
705.225	35602.7729
705.42	35641.71542
705.616	35908.21663
705.811	35444.97253
706.006	35852.85872
706.202	35863.10988
706.397	35455.21838
706.592	35430.62856
706.787	35383.5001
706.983	35285.15359
707.178	35613.02074
707.373	35524.89355
707.568	35102.83249
707.763	34425.07616
707.959	34953.3161
708.154	35029.0953
708.349	34713.73029
708.544	34887.78234
708.739	34814.06232
708.934	35250.32526
709.129	34691.2082
709.324	34801.7762
709.519	34511.04971
709.714	34601.12493
709.909	34822.25315
710.104	34779.25207
710.299	34318.6424
710.494	35123.31612
710.689	34895.9738
710.884	35231.8873
711.079	35190.91546
711.274	35098.73582
711.469	35518.7455
711.664	35016.80635
711.859	35174.52727
712.054	34805.87156
712.249	34676.87622
712.443	34380.0452
712.638	34206.0796
712.833	34015.77177
713.028	35082.34933
713.223	34437.35766
713.417	34568.36938
713.612	34576.55817
713.807	34758.77604
714.002	34689.16076
714.196	34840.68277
714.391	34429.16997
714.586	35123.31612
714.78	34715.77778
714.975	34789.49025
715.17	34605.21945
715.364	34721.92027
715.559	35088.49423
715.754	34443.49846
715.948	34056.69553
716.143	34277.70914
716.337	34003.49492
716.532	34404.6073
716.726	34283.84903
716.921	34101.71333
717.115	34500.81439
717.31	34210.17259
717.504	34355.48366
717.699	34570.41657
717.893	33940.06655
718.088	34122.17655
718.282	34287.94231
718.476	33287.55273
718.671	33160.76789
718.865	33698.65973
719.059	33391.85181
719.254	33807.08241
719.448	33964.61907
719.642	34003.49492
719.837	33430.71031
720.031	33142.36454
720.225	33130.09577
720.419	33385.71636
720.614	32919.497
720.808	33344.81402
721.002	32506.55638
721.196	33128.05098
721.39	33173.03692
721.585	33434.80074
721.779	33747.75564
721.973	33512.52124
722.167	32526.99669
722.361	32764.12148
722.555	32494.2923
722.749	32475.89634
722.943	32864.29612
723.137	32776.38744
723.331	32700.74876
723.525	32886.78514
723.719	32713.01427
723.913	33064.66397
724.107	32770.25445
724.301	32809.0971
724.495	32526.99669
724.689	32614.89266
724.883	32441.14891
725.077	32576.05437
725.271	32815.23024
725.465	32982.87812
725.659	32406.40212
725.853	32375.74373
726.046	32682.35067
726.24	32621.0251
726.434	32398.2265
726.628	32649.64343
726.822	31971.0974
727.015	32367.56824
727.209	32077.36042
727.403	32269.46508
727.596	32882.69621
727.79	32725.27986
727.984	32657.82019
728.177	32629.20172
728.371	32114.14502
728.565	32183.62883
728.758	32281.72771
728.952	32377.78761
729.146	32063.05547
729.339	32541.30504
729.533	32351.21737
729.726	32069.18615
729.92	32322.60368
730.113	32289.90283
730.307	32715.05853
730.5	32148.88663
730.694	32159.10486
730.887	32263.3338
731.081	32388.00703
731.274	31913.88102
731.468	31752.45704
731.661	32056.92481
731.854	31940.44558
732.048	32251.07129
732.241	31950.66281
732.435	32065.09903
732.628	32351.21737
732.821	32596.49547
733.014	32641.46672
733.208	32167.27949
733.401	32373.69985
733.594	32120.27585
733.788	32412.53386
733.981	32506.55638
734.174	32713.01427
734.367	32173.41048
734.56	31881.18662
734.754	31967.01046
734.947	32124.36308
735.14	31981.31477
735.333	31337.70902
735.526	31482.7608
735.719	31333.62317
735.912	31539.96659
736.105	31537.9235
736.298	31309.10822
736.491	31194.70807
736.684	31108.9111
736.877	31217.17915
737.07	31253.9504
737.263	31325.4515
737.456	31441.90031
737.649	31523.62194
737.842	31719.76496
738.035	31738.1542
738.228	31309.10822
738.421	31464.3735
738.614	31770.84653
738.807	31999.70615
739	31448.02934
739.192	31372.43899
739.385	31766.75997
739.578	31842.36264
739.771	32011.96716
739.964	31920.01128
740.156	32110.05781
740.349	31758.58685
740.542	31985.40173
740.735	31550.18205
740.927	31427.5993
741.12	31725.89469
741.313	31589.00118
741.505	31997.66266
741.698	31729.98119
741.891	30972.04989
742.083	31033.33022
742.276	31123.21041
742.468	31139.55257
742.661	31012.9033
742.854	31047.62915
743.046	30802.51427
743.239	30967.96458
743.431	31429.64229
743.624	30720.81373
743.816	31300.93662
744.009	30818.85464
744.201	30594.1821
744.393	30575.80051
744.586	30655.45484
744.778	30967.96458
744.971	31168.15158
745.163	30778.00388
745.355	30761.66373
745.548	30494.10578
745.74	30371.56746
745.932	30496.14812
746.125	30434.87837
746.317	30649.32752
746.509	30522.6987
746.702	30874.00402
746.894	30539.03763
747.086	30351.14483
747.278	30524.74106
747.471	29991.72615
747.663	30277.6244
747.855	30108.12483
748.047	30565.58855
748.239	30557.41902
748.431	30230.65382
748.623	30185.72604
748.815	30018.27289
749.008	29936.59122
749.2	30087.70374
749.392	29999.89436
749.584	29646.63566
749.776	29765.06554
749.968	29493.49894
750.16	29640.51007
750.352	29883.4991
750.544	29601.71493
750.736	29583.33842
750.928	30024.39909
751.12	29558.83654
751.311	29620.09153
751.503	29754.85592
751.695	29115.78708
751.887	29226.03441
752.079	29432.24593
752.271	28513.5635
752.463	29252.57589
752.654	29158.66068
752.846	29454.70526
753.038	29413.87021
753.23	29385.28593
753.421	29419.99544
753.613	29293.40928
753.805	29952.92741
753.997	29852.86938
754.188	29366.91043
754.38	29262.7842
754.572	29260.74253
754.763	29213.78456
754.955	29056.58142
755.146	29295.45096
755.338	29266.86753
755.53	28783.02182
755.721	29025.95815
755.913	29174.9936
756.104	28734.02804
756.296	28948.38025
756.487	28832.0162
756.679	28660.5385
756.87	28464.57305
757.062	28321.68776
757.253	28282.90552
757.445	28366.594
757.636	28603.3809
757.827	28325.77012
758.019	28354.34679
758.21	28387.0061
758.401	28154.31459
758.593	28005.3179
758.784	28058.38453
758.975	27944.08812
759.167	27897.14599
759.358	28238.00026
759.549	28515.60478
759.74	28272.69973
759.932	28029.8101
760.123	27942.04715
760.314	27868.57281
760.505	27444.08445
760.696	27409.39303
760.888	27550.20162
761.079	27368.58007
761.27	27635.91407
761.461	27537.95716
761.652	27786.93642
761.843	27256.34708
762.034	27172.68506
762.225	27062.4995
762.416	27709.38359
762.607	27205.33339
762.798	27688.97523
762.989	27503.26476
763.18	27801.22265
763.371	27319.60519
763.562	27280.83394
763.753	26923.75303
763.944	27193.09022
764.135	26850.30166
764.326	27329.80823
764.517	26913.55134
764.708	27325.72701
764.899	27066.58038
765.089	26399.43428
765.28	26748.28899
765.471	26328.03698
765.662	26230.12397
765.853	25820.15674
766.043	26140.3738
766.234	26397.39433
766.425	26073.06337
766.615	26566.71567
766.806	26448.39358
766.997	26440.23363
767.187	26548.355
767.378	26440.23363
767.569	26501.43386
767.759	26407.5941
767.95	26338.23647
768.141	26627.91881
768.331	26389.23454
768.522	26295.39888
768.712	26109.77792
768.903	26146.49303
769.093	25614.18146
769.284	26262.76121
769.474	26077.14274
769.665	26423.91381
769.855	25775.28917
770.046	26221.96473
770.236	25665.1636
770.426	25489.79024
770.617	25695.75347
770.807	25852.78827
770.998	25918.05276
771.188	26111.81763
771.378	25546.88692
771.569	25330.74368
771.759	25383.75779
771.949	25444.92968
772.139	25595.82819
772.33	24819.02988
772.52	25418.42163
772.71	25267.53642
772.9	25224.71976
773.09	25302.19821
773.281	25638.65273
773.471	25442.89058
773.661	25349.09456
773.851	25049.38547
774.041	24770.10866
774.231	24827.18355
774.421	24796.60748
774.611	24727.30374
774.802	24592.78099
774.992	24405.28268
775.182	24523.48562
775.372	24395.09318
775.562	24209.65579
775.752	24627.42976
775.942	24386.94163
776.131	24244.29626
776.321	24101.66407
776.511	24331.91973
776.701	24083.32663
776.891	23594.41353
777.081	23580.15612
777.271	23765.51397
777.461	24189.2794
777.651	24028.31563
777.84	24044.61497
778.03	23372.42241
778.22	23439.62683
778.41	24030.35304
778.599	23712.55205
778.789	23789.9586
778.979	23559.78865
779.169	23649.40779
779.358	23553.67847
779.548	23981.45603
779.738	23565.89886
779.927	23745.14376
780.117	24038.5027
780.307	23661.62904
780.496	23718.66294
780.686	23698.29342
780.875	23126.03586
781.065	23001.84257
781.254	23117.89166
781.444	23286.89447
781.633	23372.42241
781.823	23305.22142
782.012	23301.14874
782.202	23274.67666
782.391	22973.34094
782.581	22588.63446
782.77	22511.30113
782.96	22617.12697
783.149	22033.17222
783.338	22490.95111
783.528	22818.62936
783.717	22387.17162
783.906	22584.56415
784.096	22452.28707
784.285	22324.09458
784.474	22256.95192
784.663	22175.57226
784.853	22112.50712
785.042	22116.57573
785.231	22106.40423
785.42	21917.23158
785.61	22120.64435
785.799	21949.77507
785.988	22287.47081
786.177	21726.05843
786.366	21917.23158
786.555	21961.97913
786.744	21823.6745
786.933	21697.58876
787.122	21703.68934
787.312	22258.98648
787.501	21471.89221
787.69	21410.90152
787.879	21569.48475
788.068	21274.70198
788.257	21152.74762
788.445	21433.26435
788.634	21457.66073
788.823	21658.95258
789.012	21534.91968
789.201	21480.02457
789.39	21148.68273
789.579	21311.29113
789.768	21439.36339
789.957	21103.96997
790.145	21309.25837
790.334	21217.78813
790.523	21276.73468
790.712	21040.96898
790.9	21244.21203
791.089	20715.86539
791.278	21154.78007
791.467	21179.16983
791.655	21010.48604
791.844	21077.54972
792.033	20721.96011
792.221	20301.51267
792.41	20524.91654
792.599	19986.80258
792.787	20919.04276
792.976	20447.73492
793.164	20524.91654
793.353	20470.07635
793.541	20380.71369
793.73	20900.7551
793.918	20784.94105
794.107	20309.63556
794.295	20449.76594
794.484	20553.35339
794.672	20593.97889
794.861	20244.65434
795.049	20524.91654
795.238	20470.07635
795.426	20795.09964
795.614	20567.57213
795.803	20805.25833
795.991	20299.48196
796.179	20409.14638
796.368	20108.61385
796.556	20691.48689
796.744	20143.1298
796.932	20108.61385
797.121	20027.40465
797.309	20057.85731
797.497	19735.10723
797.685	19921.84275
797.874	19743.22543
798.062	20153.28178
798.25	19946.20218
798.438	20449.76594
798.626	20114.70481
798.814	20181.70789
799.002	20161.40344
799.19	20009.13351
799.378	19850.79788
799.566	19552.4655
799.755	19554.49466
799.943	19668.13466
800.131	20114.70481
800.318	19633.63542
800.506	19720.90055
800.694	19347.54108
800.882	19621.4595
801.07	19578.84499
801.258	19517.9703
801.446	19408.4053
801.634	19207.56748
801.822	19605.22519
802.01	19597.10813
802.197	19934.02239
802.385	19929.9625
802.573	19814.26251
802.761	19487.53436
802.949	19386.08799
803.136	18903.34416
803.324	19059.50072
803.512	19647.84084
803.699	19264.366
803.887	19517.9703
804.075	19418.5497
804.262	19698.57617
804.45	19347.54108
804.638	19365.79996
804.825	19781.78778
805.013	19335.36869
805.201	19260.30886
805.388	19091.95185
805.576	19584.93266
805.763	19347.54108
805.951	19507.82488
806.138	19317.11037
806.326	19408.4053
806.513	19544.34887
806.701	19367.82874
806.888	18870.89903
807.075	19412.46305
807.263	19286.68059
807.45	19759.46202
807.638	19532.17406
807.825	19834.55977
808.012	19343.4836
808.2	19355.6561
808.387	19716.84153
808.574	19471.30224
808.761	19499.70862
808.949	19588.99113
809.136	19586.9619
809.323	19493.62147
809.51	19448.98352
809.698	19637.69409
809.885	19345.51234
810.072	19641.75278
810.259	19373.91512
810.446	19729.01863
810.633	19282.62335
810.82	19396.23216
811.008	19065.58523
811.195	19479.41827
811.382	19286.68059
811.569	19501.73768
811.756	19365.79996
811.943	20104.55323
812.13	19552.4655
812.317	19781.78778
812.504	19528.11582
812.691	19609.28374
812.878	19493.62147
813.064	20143.1298
813.251	19793.96568
813.438	19442.89668
813.625	19390.14564
813.812	19288.70921
813.999	19333.33997
814.186	19396.23216
814.372	19526.08671
814.559	19899.51381
814.746	19240.02338
814.933	19315.08169
815.12	19087.8954
815.306	18984.46146
815.493	18998.65765
815.68	19199.45367
815.866	18803.98419
816.053	18980.40544
816.24	18876.98241
816.426	19061.52889
816.613	19258.28029
816.799	19136.57385
816.986	18984.46146
817.173	18881.03802
817.359	18848.5936
817.546	19083.83897
817.732	18765.45943
817.919	18905.37201
818.105	18627.59302
818.292	19096.00831
818.478	18905.37201
818.665	19223.7953
818.851	19018.93827
819.037	19065.58523
819.224	18623.5384
819.41	18844.53812
819.597	18627.59302
819.783	18832.37178
819.969	18451.23136
820.156	18542.44926
820.342	18507.98825
820.528	18710.71618
820.714	18580.96582
820.901	18974.32145
821.087	18544.47641
821.273	18497.85287
821.459	18457.31231
821.646	18854.67685
821.832	18972.29346
822.018	18828.31636
822.204	18212.07422
822.39	18568.80255
822.576	18615.4292
822.762	18704.63377
822.948	18394.47746
823.134	18329.6195
823.32	17711.62922
823.507	17962.83789
823.693	17782.52956
823.879	17932.44691
824.065	17800.76175
824.25	18289.08523
824.436	18201.94159
824.622	18133.04214
824.808	18315.43234
824.994	18220.18039
825.18	17825.07176
825.366	18250.57906
825.552	18305.29876
825.738	18526.23217
825.923	18382.3163
826.109	18266.79202
826.295	17821.02005
826.481	17715.68056
826.667	17818.99421
826.852	17932.44691
827.038	17646.80964
827.224	18181.67661
827.409	17916.23872
827.595	18102.64666
827.781	17498.9525
827.966	18197.88856
828.152	17699.47529
828.338	17865.58954
828.523	17513.12984
828.709	17701.50094
828.894	17371.36336
829.08	17604.27363
829.266	17183.0395
829.451	17063.57821
829.637	17243.78634
829.822	17071.67697
830.008	17176.96496
830.193	17025.10969
830.378	16838.85463
830.564	17671.11659
830.749	17448.32041
830.935	17170.89044
831.12	17215.43749
831.305	17035.23289
831.491	16869.22081
831.676	17152.66705
831.861	16972.47014
832.047	16836.83024
832.232	16865.17195
832.417	17181.01465
832.602	17091.92408
832.788	17217.46239
832.973	17430.09334
833.158	17223.5371
833.343	16699.17736
833.528	16936.02842
833.714	16954.24917
833.899	16893.51416
834.084	17110.1467
834.269	17259.98594
834.454	16569.63163
834.639	16891.4897
834.824	16958.29826
835.009	16826.70832
835.194	16610.11368
835.379	16725.49249
835.564	16575.70389
835.749	16711.32276
835.934	16545.34283
836.119	16723.46824
836.304	16290.32825
836.489	16359.13863
836.674	16011.0595
836.859	16407.71199
837.044	16049.50776
837.228	16160.80845
837.413	16059.62581
837.598	16286.28065
837.783	16308.54255
837.968	16170.92693
838.152	16025.22459
838.337	16059.62581
838.522	15907.85874
838.707	16019.15383
838.891	15456.64142
839.076	15665.04568
839.261	15721.70072
839.445	15905.83523
839.63	15772.28622
839.815	15622.55485
839.999	15851.20093
840.184	15826.9193
840.368	15863.34181
840.553	15731.81777
840.737	15788.47372
840.922	15705.51349
841.106	15630.64831
841.291	15598.27454
841.475	15369.63957
841.66	15845.13051
841.844	15225.98673
842.029	15418.19864
842.213	15365.59299
842.397	15406.05885
842.582	15149.10243
842.766	15397.96566
842.951	15122.79991
843.135	15041.86896
843.319	14877.98238
843.504	14886.07561
843.688	14954.86776
843.872	15047.93879
844.056	15272.52203
844.241	15523.41092
844.425	14888.09892
844.609	14764.67609
844.793	14683.74157
844.977	14805.14287
845.161	14279.04075
845.346	14793.00286
845.53	14509.72687
845.714	14578.52439
845.898	14250.70938
846.082	14714.09218
846.266	14562.33686
846.45	14444.97488
846.634	14438.9043
846.818	14651.36735
847.002	14313.44265
847.186	14720.16227
847.37	14554.24307
847.554	15104.59047
847.738	14457.11598
847.922	14359.9856
848.106	14303.3245
848.29	14165.713
848.473	14084.76066
848.657	13843.90481
848.841	14268.92245
849.025	14052.37872
849.209	14135.35628
849.392	14264.87511
849.576	14149.52281
849.76	13878.31506
849.944	13698.15789
850.127	13799.37268
850.311	13900.58009
850.495	14240.59095
850.678	14080.71295
850.862	14325.58438
851.046	14070.59363
851.229	13959.27725
851.413	13611.10681
851.596	13979.51715
851.78	13862.1221
851.964	13932.965
852.147	13631.35179
852.331	13534.1727
852.514	13445.08456
852.698	13426.86108
852.881	13212.2043
853.065	13513.92602
853.248	13329.6638
853.431	13220.30543
853.615	13056.24336
853.798	13436.98527
853.982	13260.80999
854.165	13439.0101
854.348	12975.21345
854.532	13532.14804
854.715	13100.80647
854.898	13266.88553
855.081	13226.38123
855.265	13671.84077
855.448	13526.07407
855.631	13311.43827
855.814	13333.71388
855.997	13268.9107
856.181	13027.8838
856.364	12967.11001
856.547	13301.31283
856.73	13250.68402
856.913	12833.39124
857.096	13179.79909
857.279	12642.90159
857.462	12590.20376
857.645	12357.06562
857.828	12535.47466
858.011	12415.86518
858.194	12590.20376
858.377	12263.78543
858.56	12519.25774
858.743	12634.7945
858.926	12385.45232
859.109	12381.39716
859.292	12190.77304
859.475	11987.90985
859.658	12249.58931
859.841	11996.02587
860.023	12142.09282
860.206	11987.90985
860.389	11963.56103
860.572	11742.33811
860.755	11847.8881
860.937	12054.86322
861.12	11920.94779
861.303	11695.64505
861.486	12073.12175
861.668	12044.71932
861.851	11606.30604
862.034	11523.04237
862.216	11638.79498
862.399	11100.37803
862.581	11328.02073
862.764	11317.86087
862.947	11669.25125
863.129	11384.91136
863.312	11319.89286
863.494	11427.57424
863.677	11746.39816
863.859	11421.4798
864.042	11441.79424
864.224	11202.0204
864.406	11291.44404
864.589	11181.69404
864.771	11311.76483
864.954	11305.6687
865.136	11344.27599
865.318	11364.59417
865.501	11094.27864
865.683	11049.54678
865.865	11486.4826
866.048	11108.5104
866.23	11378.8163
866.412	11236.57281
866.594	11456.01377
866.777	11100.37803
866.959	11208.1181
867.141	11149.16968
867.323	11183.72672
867.505	11071.91337
867.687	10821.73736
867.869	10951.93153
868.052	10736.27153
868.234	10608.03306
868.416	10988.54025
868.598	10473.63523
868.78	10658.92713
868.962	10876.66877
869.144	10791.21625
869.326	10693.53074
869.508	11055.64689
869.69	10705.74293
869.872	10925.48963
870.054	10677.24713
870.236	10868.53131
870.417	10823.77201
870.599	10734.23638
870.781	10823.77201
870.963	10693.53074
871.145	10795.28588
871.327	10685.38903
871.508	10697.60152
871.69	10799.35547
871.872	10882.77173
872.054	10846.15236
872.235	10467.52493
872.417	10473.63523
872.599	10229.13107
872.78	10379.93109
872.962	10151.66439
873.144	10353.44448
873.325	10318.80477
873.507	10597.85332
873.689	10575.45679
873.87	10534.73196
874.052	10500.11189
874.233	10498.0753
874.415	10322.88023
874.596	10443.08255
874.778	10078.25642
874.959	10172.05228
875.141	10151.66439
875.322	10070.09885
875.503	10237.2843
875.685	10528.62281
875.866	10133.31409
876.048	10220.97761
876.229	10049.70395
876.41	10306.57807
876.592	10377.89374
876.773	10760.69248
876.954	10318.80477
877.136	10705.74293
877.317	10498.0753
877.498	10451.23021
877.679	10082.33511
877.86	10141.46992
878.042	10006.87002
878.223	10386.04307
878.404	10296.38879
878.585	10225.05437
878.766	10119.04086
878.947	10343.25673
879.128	10139.43098
879.309	10045.6248
879.49	10239.32258
879.672	10298.42667
879.853	10100.68856
880.034	10294.35089
880.215	10161.85851
880.396	10563.23987
880.576	10273.97118
880.757	10384.00576
880.938	10094.57087
881.119	10288.23712
881.3	10326.95564
881.481	10510.29464
881.662	10608.03306
881.843	10742.37693
882.023	10612.10487
882.204	10271.93314
882.385	10388.08037
882.566	10605.99713
882.747	10318.80477
882.927	10202.63154
883.108	10076.21705
883.289	10284.1612
883.469	10114.96267
883.65	10247.47554
883.831	10200.59302
884.011	10496.0387
884.192	10654.85589
884.373	10693.53074
884.553	10701.67225
884.734	10882.77173
884.914	10424.74954
885.095	10660.96274
885.275	10418.63831
885.456	10683.35357
885.636	10443.08255
885.817	10424.74954
885.997	10259.70458
886.178	10583.60116
886.358	10318.80477
886.538	10469.56171
886.719	10457.34083
886.899	10856.32479
887.08	10500.11189
887.26	10565.27606
887.44	10278.04723
887.621	10555.09501
887.801	10504.18503
887.981	10603.9612
888.161	10398.26668
888.342	10420.6754
888.522	10581.56509
888.702	10697.60152
888.882	10587.67327
889.062	10579.529
889.242	10620.24834
889.423	10449.19332
889.603	10084.37444
889.783	10441.0456
889.963	10010.94971
890.143	10326.95564
890.323	10345.29431
890.503	10231.1694
890.683	10388.08037
890.863	10037.46632
891.043	10049.70395
891.223	10420.6754
891.403	10306.57807
891.583	10420.6754
891.763	10269.89508
891.943	10316.76702
892.122	10290.27505
892.302	10571.38454
892.482	10343.25673
892.662	10304.54024
892.842	10092.53161
893.022	10347.33187
893.201	9978.31055
893.381	10326.95564
893.561	9927.30444
893.741	10037.46632
893.92	10010.94971
894.1	10117.00177
894.28	9388.10246
894.459	9639.456
894.639	9576.12938
894.819	9943.62738
894.998	9766.06463
895.178	9890.5744
895.357	9831.38816
895.537	10218.93922
895.716	9931.38527
895.896	10098.64934
896.075	9621.0724
896.255	9637.41344
896.434	9764.02302
896.614	9806.89364
896.793	9265.402
896.973	9653.75349
897.152	9392.19146
897.331	9676.21943
897.511	9698.68351
897.69	9727.27147
897.87	9578.17241
898.049	9627.20041
898.228	9447.38651
898.407	9641.49855
898.587	9749.73134
898.766	9810.97621
898.945	9324.71466
899.124	9459.65047
899.304	9363.56712
899.483	9608.81597
899.662	9443.29839
899.841	9459.65047
900.02	9179.47592
900.199	9494.39522
900.378	9257.21984
900.557	9314.48934
900.737	9161.05931
900.916	9402.41366
901.095	9083.28498
901.274	9371.74583
901.453	9161.05931
901.632	9085.33199
901.811	8933.80603
901.989	9046.43581
902.168	8673.52679
902.347	9056.67225
902.526	8648.91823
902.705	8882.59299
902.884	8978.86433
903.063	9073.04966
903.242	9021.86657
903.42	9163.10567
903.599	8864.15356
903.778	9165.15201
903.957	8667.3749
904.135	8884.64172
904.314	8667.3749
904.493	9075.09676
904.672	8677.62796
904.85	8757.58601
905.029	8568.92183
905.207	8575.07641
905.386	8380.09832
905.565	8704.28376
905.743	8517.62705
905.922	8437.58349
906.1	8367.7781
906.279	8501.21022
906.457	8129.44852
906.636	8710.43465
906.814	8474.53028
906.993	8293.84208
907.171	8269.19111
907.35	8525.83501
907.528	8219.88067
907.707	8503.26239
907.885	8133.55991
908.063	8217.82582
908.242	8104.7785
908.42	8195.22118
908.598	7864.0927
908.777	8236.31875
908.955	7888.79133
909.133	8203.44133
909.311	8047.20384
909.49	8001.95548
909.668	7631.36652
909.846	7631.36652
910.024	7571.59685
910.202	7458.19107
910.38	7470.56578
910.559	7427.2509
910.737	7532.42766
910.915	7672.57657
911.093	7377.73646
911.271	7507.68524
911.449	7441.69026
911.627	7454.066
911.805	7177.48708
911.983	7148.56795
912.161	7003.90669
912.339	7346.78356
912.517	7189.87966
912.695	7355.03815
912.872	7098.98214
913.05	7235.3123
913.228	6925.33021
913.406	7136.1727
913.584	6954.28323
913.762	7008.04139
913.939	6879.82364
914.117	7115.51217
914.295	6904.64676
914.473	7107.24734
914.65	7057.65082
914.828	7260.08924
915.006	6813.61265
915.184	7148.56795
915.361	6683.19145
915.539	6772.21893
915.716	6500.86302
915.894	7005.97405
916.072	6531.95438
916.249	6647.98283
916.427	6569.25714
916.604	7053.51719
916.782	6614.83923
916.959	7074.18442
917.137	6490.49807
917.314	6747.37831
917.492	6428.2962
917.669	6689.40404
917.847	6482.2057
918.024	6718.39342
918.201	6407.55759
918.379	6645.91153
918.556	6449.03248
918.733	6293.45356
918.911	5944.47852
919.088	6112.81716
919.265	5813.44155
919.442	5944.47852
919.62	5917.44681
919.797	6060.87727
919.974	5740.60276
920.151	6268.54874
920.328	5977.74285
920.506	6121.12618
920.683	5628.1662
920.86	5800.95695
921.037	5419.76884
921.214	6038.01906
921.391	5628.1662
921.568	6062.95515
921.745	5784.3095
921.922	5959.03241
922.099	5830.08636
922.276	5761.41679
922.453	5588.58883
922.63	5740.60276
922.807	5509.40856
922.984	5767.66054
923.161	5340.51617
923.338	5467.72107
923.514	5284.1845
923.691	5307.1365
923.868	5215.31151
924.045	5259.14272
924.222	4960.47026
924.399	5108.8215
924.575	5010.63019
924.752	5405.17221
924.929	4975.10161
925.105	5092.1117
925.282	4887.29662
925.459	5133.88342
925.635	4862.20205
925.812	5014.80958
925.989	4837.10419
926.165	4950.0186
926.342	4678.07512
926.518	4868.476
926.695	4460.24634
926.871	4453.95927
927.048	4168.74015
927.224	4487.48805
927.401	4183.43021
927.577	4309.30229
927.754	4292.5238
927.93	4428.80898
928.107	4112.06883
928.283	4269.45112
928.459	4049.08285
928.636	4179.23316
928.812	4114.16804
928.988	4254.76716
929.165	3906.24611
929.341	4114.16804
929.517	3838.99649
929.693	4166.64149
929.87	3954.56907
930.046	4093.175
930.222	3862.11585
930.398	4067.98061
930.574	3851.60735
930.751	4080.57818
930.927	3597.15284
931.103	3887.33422
931.279	3658.16343
931.455	3811.67052
931.631	3826.38492
931.807	4053.28249
931.983	3719.15803
932.159	3744.39245
932.335	3616.08885
932.511	3439.29454
932.687	3256.05331
932.863	3491.92538
933.039	2979.90099
933.215	3262.37414
933.391	3249.73232
933.566	3531.91724
933.742	3034.73138
933.918	3213.91059
934.094	3175.97647
934.27	3154.89967
934.445	2817.46009
934.621	2992.55507
934.797	2699.26927
934.973	2811.12952
935.148	2722.48862
935.324	2781.5852
935.5	2454.31975
935.675	2578.92623
935.851	2319.11069
936.027	2397.28358
936.202	2084.51679
936.378	2384.60783
936.553	2156.38535
936.729	2230.35792
936.904	1995.72634
937.08	1879.43627
937.255	1835.03028
937.431	1843.48873
937.606	1557.98414
937.782	1612.97409
937.957	1348.59506
938.133	1538.94892
938.308	1380.32048
938.483	1371.86035
938.659	1175.17081
938.834	1405.70098
939.009	1073.66495
939.185	1166.71161
939.36	1031.37423
939.535	1063.09206
939.71	872.80712
939.886	1016.57302
940.061	887.60495
940.236	862.23749
940.411	773.46144
940.586	959.48555
940.761	775.57496
940.937	912.97357
941.112	743.87318
941.287	771.34792
941.462	686.81598
941.637	779.80203
941.812	735.41977
941.987	716.40021
942.162	644.55668
942.337	707.94735
942.512	598.07705
942.687	712.17376
942.862	498.80101
943.037	619.20341
943.212	509.36083
943.386	650.89528
943.561	570.61472
943.736	532.59368
943.911	543.15464
944.086	566.38994
944.26	505.13686
944.435	507.24884
944.61	515.69689
944.785	557.94055
944.959	526.25728
945.134	595.96448
945.309	384.77926
945.483	570.61472
945.658	566.38994
945.833	490.35343
946.007	437.56144
946.182	610.75271
946.357	505.13686
946.531	486.12972
946.706	473.45896
946.88	549.49137
947.055	473.45896
947.229	500.91295
947.404	405.89092
947.578	475.57071
947.752	551.60365
947.927	574.83955
948.101	524.14517
948.276	570.61472
948.45	422.78141
948.624	688.92907
948.799	481.90607
948.973	614.97804
949.147	490.35343
949.321	498.80101
949.496	509.36083
949.67	612.86537
949.844	465.01208
950.018	503.0249
950.193	424.8928
950.367	536.81802
950.541	534.70585
950.715	551.60365
950.889	399.55725
951.063	524.14517
951.237	456.56545
951.411	642.44384
951.585	566.38994
951.759	735.41977
951.933	566.38994
952.107	701.60782
952.281	509.36083
952.455	737.53311
952.629	682.58984
952.803	695.26839
952.977	469.23549
953.151	678.36375
953.325	644.55668
953.499	680.47679
953.672	534.70585
953.846	610.75271
954.02	505.13686
954.194	695.26839
954.368	591.73939
954.541	762.89398
954.715	507.24884
954.889	650.89528
955.062	659.3469
955.236	672.02469
955.41	720.6267
955.583	695.26839
955.757	585.40185
955.93	667.79872
956.104	551.60365
956.278	608.64007
956.451	676.25072
956.625	557.94055
956.798	460.78874
956.972	650.89528
957.145	517.80894
957.319	627.6543
957.492	517.80894
957.665	657.23398
957.839	642.44384
958.012	638.2182
958.185	549.49137
958.359	612.86537
958.532	585.40185
958.705	701.60782
958.879	579.06443
959.052	642.44384
959.225	486.12972
959.398	524.14517
959.572	541.04242
959.745	579.06443
959.918	486.12972
960.091	587.51435
960.264	519.921
960.438	574.83955
960.611	414.33604
960.784	608.64007
960.957	545.26687
961.13	568.50232
961.303	492.4653
961.476	636.1054
961.649	500.91295
961.822	566.38994
961.995	553.71593
962.168	503.0249
962.341	494.57719
962.514	467.12378
962.686	481.90607
962.859	507.24884
963.032	414.33604
963.205	570.61472
963.378	524.14517
963.551	532.59368
963.723	547.37911
963.896	726.96652
964.069	543.15464
964.242	587.51435
964.414	443.89597
964.587	610.75271
964.76	564.27757
964.932	534.70585
965.105	490.35343
965.278	473.45896
965.45	475.57071
965.623	503.0249
965.795	505.13686
965.968	526.25728
966.14	433.33849
966.313	515.69689
966.485	507.24884
966.658	484.01789
966.83	462.9004
967.003	484.01789
967.175	538.93021
967.348	608.64007
967.52	372.11307
967.692	526.25728
967.865	410.11344
968.037	456.56545
968.209	458.67709
968.382	448.11907
968.554	433.33849
968.726	448.11907
968.898	365.78019
969.071	492.4653
969.243	296.12896
969.415	365.78019
969.587	338.33954
969.759	454.45383
969.932	363.66927
970.104	443.89597
970.276	380.55713
970.448	389.00146
970.62	287.68771
970.792	435.44996
970.964	346.78251
971.136	338.33954
971.308	351.00409
971.48	393.22373
971.652	325.67561
971.824	365.78019
971.996	329.89685
972.168	310.90184
972.339	279.24676
972.511	334.11816
972.683	346.78251
972.855	321.45445
973.027	291.9083
973.199	304.5705
973.37	380.55713
973.542	317.23335
973.714	245.48595
973.886	298.23931
974.057	266.58589
974.229	230.71714
974.401	279.24676
974.572	188.52586
974.744	203.2919
974.915	262.36575
975.087	220.16857
975.259	363.66927
975.43	300.34969
975.602	268.69598
975.773	262.36575
975.945	321.45445
976.116	245.48595
976.288	340.45025
976.459	194.85404
976.63	283.46719
976.802	283.46719
976.973	272.91624
977.145	237.04651
977.316	215.94929
977.487	264.47581
977.659	215.94929
977.83	270.8061
978.001	281.35697
978.172	211.73008
978.344	281.35697
978.515	207.51095
978.686	232.82691
978.857	239.15634
979.028	228.60739
979.2	228.60739
979.371	239.15634
979.542	163.21498
979.713	270.8061
979.884	220.16857
980.055	144.23379
980.226	234.9367
980.397	224.38794
980.568	177.9793
980.739	232.82691
980.91	135.79826
981.081	177.9793
981.252	245.48595
981.423	190.63523
981.594	228.60739
981.765	169.54242
981.936	144.23379
982.106	228.60739
982.277	177.9793
982.448	205.40141
982.619	148.45169
982.79	148.45169
982.96	152.66967
983.131	156.88773
983.302	203.2919
983.472	163.21498
983.643	131.58062
983.814	215.94929
983.984	131.58062
984.155	59.89417
984.326	102.05957
984.496	213.83967
984.667	80.97574
984.837	93.62577
985.008	161.10588
985.178	190.63523
985.349	180.08857
985.519	102.05957
985.69	131.58062
985.86	135.79826
986.031	184.30718
986.201	102.05957
986.371	89.40901
986.542	87.30066
986.712	180.08857
986.882	140.01598
987.053	85.19233
987.223	89.40901
987.393	87.30066
987.563	76.75925
987.734	144.23379
987.904	125.25432
988.074	59.89417
988.244	123.1456
988.414	51.46218
988.585	144.23379
988.755	127.36306
988.925	154.77869
989.095	34.5993
989.265	116.81956
989.435	72.54284
989.605	78.86748
989.775	148.45169
989.945	140.01598
990.115	36.70708
990.285	121.0369
990.455	0.87808
990.625	68.32652
990.795	93.62577
990.965	51.46218
991.134	121.0369
991.304	26.16843
991.474	93.62577
991.644	85.19233
991.814	76.75925
991.984	34.5993
992.153	104.16807
992.323	95.73419
992.493	30.38382
992.662	118.92822
992.832	205.40141
993.002	9.30781
993.171	106.2766
993.341	13.52282
993.511	62.00222
993.68	70.43467
993.85	83.08402
994.019	34.5993
994.189	53.57014
994.358	76.75925
994.528	62.00222
994.697	34.5993
994.867	34.5993
995.036	110.49372
995.206	43.03055
995.375	49.35423
995.544	40.92271
995.714	0.87808
995.883	85.19233
996.052	34.5993
996.222	118.92822
996.391	135.79826
996.56	2.98547
996.73	93.62577
996.899	80.97574
997.068	59.89417
997.237	36.70708
997.406	102.05957
997.576	74.65103
997.745	5.09289
997.914	55.67812
998.083	-15.98024
998.252	112.60231
998.421	45.13842
998.59	45.13842
998.759	85.19233
998.928	28.27611
999.097	59.89417
999.266	19.84552
999.435	38.81488
999.604	21.95313
999.773	76.75925
999.942	45.13842
1000.111	34.5993
1000.28	80.97574
1000.448	13.52282
1000.617	49.35423
1000.786	59.89417
1000.955	17.73793
1001.124	59.89417
1001.292	140.01598
1001.461	70.43467
1001.63	59.89417
1001.798	49.35423
1001.967	59.89417
1002.136	-3.33665
1002.304	7.20034
1002.473	9.30781
1002.642	28.27611
1002.81	-24.40881
1002.979	116.81956
1003.147	0.87808
1003.316	-37.05092
1003.484	66.2184
1003.653	38.81488
1003.821	-28.62294
1003.99	38.81488
1004.158	62.00222
1004.327	9.30781
1004.495	26.16843
1004.663	0.87808
1004.832	-24.40881
1005	62.00222
1005.168	9.30781
1005.337	-28.62294
1005.505	5.09289
1005.673	-11.7658
1005.842	76.75925
1006.01	-28.62294
1006.178	36.70708
1006.346	43.03055
1006.514	15.63036
1006.683	80.97574
1006.851	9.30781
1007.019	34.5993
1007.187	15.63036
1007.355	53.57014
1007.523	36.70708
1007.691	2.98547
1007.859	34.5993
1008.027	13.52282
1008.195	38.81488
1008.363	19.84552
1008.531	36.70708
1008.699	-62.33245
1008.867	17.73793
1009.035	-22.3017
1009.203	36.70708
1009.37	19.84552
1009.538	110.49372
1009.706	64.1103
1009.874	9.30781
1010.042	-15.98024
1010.209	34.5993
1010.377	21.95313
1010.545	68.32652
1010.713	19.84552
1010.88	78.86748
1011.048	-24.40881
1011.216	11.4153
1011.383	-68.65227
1011.551	-20.19457
1011.718	97.84262
1011.886	15.63036
1012.054	-43.37164
1012.221	17.73793
1012.389	-83.39761
1012.556	51.46218
1012.724	70.43467
1012.891	64.1103
1013.058	51.46218
1013.226	43.03055
1013.393	19.84552
1013.561	-41.26476
1013.728	5.09289
1013.895	53.57014
1014.063	38.81488
1014.23	87.30066
1014.397	21.95313
1014.565	-51.79892
1014.732	-30.72997
1014.899	30.38382
1015.066	-13.87303
1015.233	26.16843
1015.401	51.46218
1015.568	-28.62294
1015.735	28.27611
1015.902	11.4153
1016.069	2.98547
1016.236	-41.26476
1016.403	17.73793
1016.57	76.75925
1016.737	-30.72997
1016.904	43.03055
1017.071	68.32652
1017.238	45.13842
1017.405	-11.7658
1017.572	26.16843
1017.739	51.46218
1017.906	0.87808
1018.073	38.81488
1018.24	5.09289
1018.407	26.16843
1018.573	9.30781
1018.74	45.13842
1018.907	-15.98024
1019.074	19.84552
1019.241	30.38382
1019.407	5.09289
1019.574	28.27611
1019.741	51.46218
1019.907	13.52282
1020.074	9.30781
1020.241	2.98547
1020.407	-15.98024
1020.574	21.95313
1020.74	-5.44397
1020.907	80.97574
1021.073	-15.98024
1021.24	-56.01241
1021.406	32.49155
1021.573	13.52282
1021.739	11.4153
1021.906	-7.55127
1022.072	87.30066
1022.239	47.24632
1022.405	59.89417
1022.571	-20.19457
1022.738	-28.62294
1022.904	-89.71665
1023.07	-49.69214
1023.237	-22.3017
1023.403	68.32652
1023.569	17.73793
1023.735	34.5993
1023.902	53.57014
1024.068	51.46218
1024.234	9.30781
1024.4	43.03055
1024.566	59.89417
1024.732	-45.4785
1024.898	-22.3017
1025.065	34.5993
1025.231	19.84552
1025.397	-24.40881
1025.563	-18.08741
1025.729	26.16843
1025.895	-7.55127
1026.061	68.32652
1026.227	-7.55127
1026.392	17.73793
1026.558	5.09289
1026.724	17.73793
1026.89	-39.15785
1027.056	-32.83698
1027.222	-18.08741
1027.388	9.30781
1027.553	2.98547
1027.719	15.63036
1027.885	-34.94396
1028.051	-7.55127
1028.216	-3.33665
1028.382	-1.2293
1028.548	-15.98024
1028.713	59.89417
1028.879	97.84262
1029.045	-22.3017
1029.21	34.5993
1029.376	-41.26476
1029.541	-83.39761
1029.707	-89.71665
1029.873	62.00222
1030.038	28.27611
1030.204	51.46218
1030.369	-7.55127
1030.534	43.03055
1030.7	9.30781
1030.865	5.09289
1031.031	-20.19457
1031.196	-3.33665
1031.361	-102.35404
1031.527	9.30781
1031.692	-13.87303
1031.857	80.97574
1032.023	-53.90568
1032.188	47.24632
1032.353	51.46218
1032.518	-3.33665
1032.684	53.57014
1032.849	62.00222
1033.014	5.09289
1033.179	-41.26476
1033.344	-7.55127
1033.509	43.03055
1033.674	-3.33665
1033.839	-22.3017
1034.004	43.03055
1034.17	-11.7658
1034.335	59.89417
1034.5	-13.87303
1034.664	13.52282
1034.829	-7.55127
1034.994	-64.43909
1035.159	-32.83698
1035.324	17.73793
1035.489	-18.08741
1035.654	59.89417
1035.819	-32.83698
1035.984	-13.87303
1036.148	-11.7658
1036.313	17.73793
1036.478	-11.7658
1036.643	0.87808
1036.807	26.16843
1036.972	26.16843
1037.137	26.16843
1037.301	5.09289
1037.466	2.98547
1037.631	57.78613
1037.795	87.30066
1037.96	53.57014
1038.124	36.70708
1038.289	-34.94396
1038.454	-5.44397
1038.618	-56.01241
1038.783	21.95313
1038.947	28.27611
1039.111	-18.08741
1039.276	9.30781
1039.44	-37.05092
1039.605	-34.94396
1039.769	26.16843
1039.933	49.35423
1040.098	57.78613
1040.262	93.62577
1040.426	30.38382
1040.591	-81.29121
1040.755	47.24632
1040.919	-3.33665
1041.083	5.09289
1041.248	9.30781
1041.412	70.43467
1041.576	55.67812
1041.74	-49.69214
1041.904	-15.98024
1042.068	-28.62294
1042.232	-34.94396
1042.397	59.89417
1042.561	-47.58533
1042.725	-13.87303
1042.889	5.09289
1043.053	-15.98024
1043.217	51.46218
1043.381	32.49155
1043.544	-41.26476
1043.708	36.70708
1043.872	26.16843
1044.036	2.98547
1044.2	59.89417
1044.364	-24.40881
1044.528	-96.03546
1044.691	-56.01241
1044.855	-5.44397
1045.019	-7.55127
1045.183	5.09289
1045.346	2.98547
1045.51	-49.69214
1045.674	9.30781
1045.837	68.32652
1046.001	-20.19457
1046.165	-22.3017
1046.328	15.63036
1046.492	-7.55127
1046.655	43.03055
1046.819	0.87808
1046.983	45.13842
1047.146	-15.98024
1047.31	-66.54569
1047.473	-1.2293
1047.636	-5.44397
1047.8	-41.26476
1047.963	0.87808
1048.127	13.52282
1048.29	2.98547
