Data from mixed_try1_USB4F045381__28__00093.txt Node

Date: Thu Apr 03 19:53:50 EDT 2025
User: mmckonesweet
Spectrometer: USB4F04538
Trigger mode: 4
Integration Time (sec): 2.700000E-3
Scans to average: 1
Electric dark correction enabled: true
Nonlinearity correction enabled: true
Boxcar width: 0
XAxis mode: Wavelengths
Number of Pixels in Spectrum: 3648
>>>>>Begin Spectral Data<<<<<
345.52	8.4297
345.736	8.4297
345.952	8.4297
346.168	27.39791
346.384	52.69182
346.6	37.93663
346.816	0
347.032	-48.46317
347.248	18.96735
347.464	23.18258
347.68	-10.53658
347.896	-27.39383
348.112	44.26014
348.328	-2.10736
348.544	44.26014
348.76	-31.6079
348.975	-48.46317
349.191	-14.75104
349.407	6.32224
349.623	65.34002
349.839	2.10739
350.055	-31.6079
350.27	56.90779
350.486	-6.32202
350.702	56.90779
350.918	48.47593
351.133	-18.9654
351.349	18.96735
351.565	31.61332
351.781	40.04444
351.996	69.55627
352.212	48.47593
352.428	-18.9654
352.644	67.44814
352.859	31.61332
353.075	27.39791
353.291	-2.10736
353.506	8.4297
353.722	-14.75104
353.938	-54.78349
354.153	33.72107
354.369	12.64469
354.584	80.0973
354.8	-52.67674
355.016	14.75222
355.231	-8.42931
355.447	-18.9654
355.662	40.04444
355.878	147.57295
356.093	-12.64382
356.309	40.04444
356.524	59.01582
356.74	48.47593
356.955	59.01582
357.171	-35.82187
357.386	8.4297
357.602	50.58386
357.817	0
358.033	59.01582
358.248	-2.10736
358.464	90.63889
358.679	-8.42931
358.895	65.34002
359.11	-42.14263
359.325	86.42218
359.541	14.75222
359.756	48.47593
359.972	90.63889
360.187	31.61332
360.402	44.26014
360.618	92.74727
360.833	0
361.048	82.20557
361.264	-35.82187
361.479	63.23193
361.694	48.47593
361.909	-16.85823
362.125	31.61332
362.34	-21.07254
362.555	33.72107
362.77	31.61332
362.986	14.75222
363.201	77.98905
363.416	31.61332
363.631	50.58386
363.847	16.85977
364.062	25.29023
364.277	88.53052
364.492	8.4297
364.707	-2.10736
364.922	-29.50088
365.138	6.32224
365.353	6.32224
365.568	-18.9654
365.783	-50.56997
365.998	8.4297
366.213	52.69182
366.428	0
366.643	90.63889
366.858	65.34002
367.073	59.01582
367.288	23.18258
367.503	-16.85823
367.718	-23.17966
367.933	124.37568
368.148	16.85977
368.363	0
368.578	52.69182
368.793	-29.50088
369.008	2.10739
369.223	109.61514
369.438	-6.32202
369.653	35.82884
369.868	46.36803
370.083	42.15228
370.298	48.47593
370.513	90.63889
370.728	73.77262
370.943	23.18258
371.157	37.93663
371.372	8.4297
371.587	-48.46317
371.802	2.10739
372.017	14.75222
372.232	80.0973
372.446	52.69182
372.661	35.82884
372.876	52.69182
373.091	14.75222
373.306	-14.75104
373.52	6.32224
373.735	-2.10736
373.95	0
374.165	44.26014
374.379	-16.85823
374.594	18.96735
374.809	-40.03573
375.023	82.20557
375.238	63.23193
375.453	14.75222
375.667	65.34002
375.882	92.74727
376.097	2.10739
376.311	-46.35635
376.526	77.98905
376.741	40.04444
376.955	67.44814
377.17	-6.32202
377.384	-18.9654
377.599	-35.82187
377.813	90.63889
378.028	63.23193
378.242	-42.14263
378.457	65.34002
378.672	40.04444
378.886	52.69182
379.101	-54.78349
379.315	-2.10736
379.53	52.69182
379.744	-2.10736
379.958	-56.89021
380.173	50.58386
380.387	48.47593
380.602	-18.9654
380.816	46.36803
381.031	61.12386
381.245	31.61332
381.459	0
381.674	0
381.888	67.44814
382.103	77.98905
382.317	8.4297
382.531	37.93663
382.746	14.75222
382.96	-2.10736
383.174	-65.31684
383.388	84.31387
383.603	63.23193
383.817	44.26014
384.031	14.75222
384.246	-14.75104
384.46	44.26014
384.674	18.96735
384.888	48.47593
385.103	14.75222
385.317	40.04444
385.531	0
385.745	42.15228
385.959	18.96735
386.174	59.01582
386.388	23.18258
386.602	10.53718
386.816	145.464
387.03	31.61332
387.244	73.77262
387.458	-16.85823
387.672	40.04444
387.887	-2.10736
388.101	2.10739
388.315	-2.10736
388.529	63.23193
388.743	33.72107
388.957	18.96735
389.171	59.01582
389.385	-25.28676
389.599	33.72107
389.813	27.39791
390.027	0
390.241	56.90779
390.455	69.55627
390.669	101.18103
390.883	18.96735
391.097	27.39791
391.311	23.18258
391.525	0
391.738	50.58386
391.952	65.34002
392.166	75.88082
392.38	44.26014
392.594	14.75222
392.808	10.53718
393.022	10.53718
393.236	16.85977
393.449	2.10739
393.663	48.47593
393.877	-40.03573
394.091	52.69182
394.305	27.39791
394.518	56.90779
394.732	48.47593
394.946	101.18103
395.16	14.75222
395.373	23.18258
395.587	65.34002
395.801	-61.10358
396.015	-33.71489
396.228	-2.10736
396.442	18.96735
396.656	-2.10736
396.869	86.42218
397.083	40.04444
397.297	40.04444
397.51	65.34002
397.724	2.10739
397.938	48.47593
398.151	8.4297
398.365	52.69182
398.578	6.32224
398.792	-18.9654
399.005	44.26014
399.219	-37.92881
399.433	27.39791
399.646	48.47593
399.86	84.31387
400.073	46.36803
400.287	59.01582
400.5	25.29023
400.714	-23.17966
400.927	-69.53
401.141	6.32224
401.354	-14.75104
401.567	35.82884
401.781	31.61332
401.994	14.75222
402.208	90.63889
402.421	54.79979
402.635	-27.39383
402.848	18.96735
403.061	61.12386
403.275	14.75222
403.488	8.4297
403.701	115.94096
403.915	-2.10736
404.128	48.47593
404.341	35.82884
404.555	73.77262
404.768	59.01582
404.981	-16.85823
405.195	65.34002
405.408	73.77262
405.621	-16.85823
405.834	0
406.048	56.90779
406.261	25.29023
406.474	107.50658
406.687	120.15828
406.9	65.34002
407.114	8.4297
407.327	132.81075
407.54	-8.42931
407.753	44.26014
407.966	-40.03573
408.179	40.04444
408.392	18.96735
408.605	44.26014
408.819	16.85977
409.032	18.96735
409.245	63.23193
409.458	67.44814
409.671	101.18103
409.884	-10.53658
410.097	94.85568
410.31	-27.39383
410.523	-25.28676
410.736	90.63889
410.949	-8.42931
411.162	50.58386
411.375	48.47593
411.588	42.15228
411.801	63.23193
412.014	-2.10736
412.227	-33.71489
412.44	65.34002
412.653	-18.9654
412.865	33.72107
413.078	16.85977
413.291	35.82884
413.504	-16.85823
413.717	59.01582
413.93	44.26014
414.143	101.18103
414.356	124.37568
414.568	16.85977
414.781	52.69182
414.994	-10.53658
415.207	73.77262
415.42	73.77262
415.632	46.36803
415.845	12.64469
416.058	14.75222
416.271	35.82884
416.483	10.53718
416.696	-29.50088
416.909	2.10739
417.121	23.18258
417.334	-16.85823
417.547	94.85568
417.759	56.90779
417.972	31.61332
418.185	-6.32202
418.397	10.53718
418.61	56.90779
418.823	44.26014
419.035	10.53718
419.248	103.28953
419.46	63.23193
419.673	67.44814
419.885	27.39791
420.098	63.23193
420.311	56.90779
420.523	12.64469
420.736	10.53718
420.948	128.59318
421.161	65.34002
421.373	8.4297
421.586	27.39791
421.798	6.32224
422.01	6.32224
422.223	40.04444
422.435	29.5056
422.648	59.01582
422.86	-8.42931
423.073	25.29023
423.285	-35.82187
423.497	-12.64382
423.71	4.2148
423.922	35.82884
424.134	44.26014
424.347	124.37568
424.559	48.47593
424.771	14.75222
424.984	101.18103
425.196	25.29023
425.408	-27.39383
425.621	-14.75104
425.833	56.90779
426.045	77.98905
426.257	-12.64382
426.47	2.10739
426.682	8.4297
426.894	37.93663
427.106	-54.78349
427.318	82.20557
427.531	48.47593
427.743	56.90779
427.955	33.72107
428.167	50.58386
428.379	8.4297
428.591	23.18258
428.804	6.32224
429.016	6.32224
429.228	48.47593
429.44	67.44814
429.652	69.55627
429.864	14.75222
430.076	27.39791
430.288	92.74727
430.5	-23.17966
430.712	33.72107
430.924	69.55627
431.136	109.61514
431.348	-23.17966
431.56	50.58386
431.772	126.48442
431.984	8.4297
432.196	27.39791
432.408	-27.39383
432.62	42.15228
432.832	86.42218
433.044	52.69182
433.256	35.82884
433.468	65.34002
433.679	65.34002
433.891	33.72107
434.103	56.90779
434.315	-14.75104
434.527	-6.32202
434.739	6.32224
434.95	61.12386
435.162	12.64469
435.374	46.36803
435.586	94.85568
435.798	52.69182
436.009	27.39791
436.221	18.96735
436.433	88.53052
436.645	31.61332
436.856	75.88082
437.068	-14.75104
437.28	75.88082
437.491	52.69182
437.703	27.39791
437.915	99.07256
438.126	33.72107
438.338	73.77262
438.55	65.34002
438.761	120.15828
438.973	82.20557
439.184	16.85977
439.396	86.42218
439.608	40.04444
439.819	31.61332
440.031	61.12386
440.242	90.63889
440.454	92.74727
440.665	-8.42931
440.877	23.18258
441.088	82.20557
441.3	31.61332
441.511	-4.2147
441.723	77.98905
441.934	40.04444
442.146	16.85977
442.357	29.5056
442.569	73.77262
442.78	50.58386
442.991	-31.6079
443.203	82.20557
443.414	124.37568
443.626	61.12386
443.837	56.90779
444.048	82.20557
444.26	84.31387
444.471	59.01582
444.682	65.34002
444.894	23.18258
445.105	69.55627
445.316	27.39791
445.528	90.63889
445.739	88.53052
445.95	99.07256
446.161	14.75222
446.373	6.32224
446.584	198.19399
446.795	33.72107
447.006	54.79979
447.217	50.58386
447.429	77.98905
447.64	84.31387
447.851	103.28953
448.062	82.20557
448.273	73.77262
448.484	82.20557
448.695	86.42218
448.907	96.96411
449.118	-2.10736
449.329	126.48442
449.54	92.74727
449.751	134.91958
449.962	40.04444
450.173	67.44814
450.384	92.74727
450.595	82.20557
450.806	31.61332
451.017	48.47593
451.228	101.18103
451.439	8.4297
451.65	77.98905
451.861	109.61514
452.072	94.85568
452.283	-2.10736
452.494	120.15828
452.705	103.28953
452.915	84.31387
453.126	82.20557
453.337	86.42218
453.548	90.63889
453.759	80.0973
453.97	46.36803
454.181	86.42218
454.391	71.66443
454.602	105.39804
454.813	162.33619
455.024	73.77262
455.235	99.07256
455.445	67.44814
455.656	23.18258
455.867	101.18103
456.078	149.68192
456.288	-61.10358
456.499	130.70195
456.71	65.34002
456.921	128.59318
457.131	94.85568
457.342	65.34002
457.553	143.35507
457.763	84.31387
457.974	56.90779
458.184	103.28953
458.395	99.07256
458.606	14.75222
458.816	67.44814
459.027	73.77262
459.237	158.11802
459.448	115.94096
459.659	90.63889
459.869	120.15828
460.08	56.90779
460.29	90.63889
460.501	80.0973
460.711	124.37568
460.922	90.63889
461.132	124.37568
461.343	75.88082
461.553	132.81075
461.764	115.94096
461.974	65.34002
462.184	92.74727
462.395	48.47593
462.605	75.88082
462.816	126.48442
463.026	90.63889
463.236	124.37568
463.447	145.464
463.657	185.53762
463.867	92.74727
464.078	208.74152
464.288	99.07256
464.498	111.72373
464.709	88.53052
464.919	73.77262
465.129	149.68192
465.339	147.57295
465.55	90.63889
465.76	191.86571
465.97	215.07028
466.18	153.89993
466.391	185.53762
466.601	107.50658
466.811	162.33619
467.021	236.16742
467.231	208.74152
467.441	174.9912
467.651	174.9912
467.862	189.75633
468.072	221.39921
468.282	147.57295
468.492	196.08454
468.702	212.96067
468.912	255.15652
469.122	227.72833
469.332	259.37653
469.542	250.93658
469.752	236.16742
469.962	217.1799
470.172	225.6186
470.382	242.49695
470.592	212.96067
470.802	379.67753
471.012	278.36751
471.222	223.5089
471.432	265.70668
471.642	329.01742
471.852	394.45523
472.062	360.67883
472.272	360.67883
472.482	312.13296
472.691	329.01742
472.901	447.23925
473.111	447.23925
473.321	409.23374
473.531	474.69081
473.741	409.23374
473.95	388.12183
474.16	375.45547
474.37	529.60148
474.58	413.45632
474.79	523.26513
474.999	546.49901
475.209	464.13222
475.419	500.03297
475.628	573.95937
475.838	548.61126
476.048	548.61126
476.258	472.57906
476.467	757.78646
476.677	675.37029
476.886	888.83812
477.096	702.8405
477.306	666.91831
477.515	776.80785
477.725	850.78731
477.935	723.97271
478.144	802.17095
478.354	726.08599
478.563	920.54914
478.773	869.81237
478.982	960.71887
479.192	1038.95115
479.401	935.34821
479.611	1045.29468
479.82	1041.06565
480.03	1070.66929
480.239	1189.09338
480.449	1121.42075
480.658	1172.17484
480.868	1189.09338
481.077	1260.99955
481.287	1155.25654
481.496	1466.15618
481.705	1411.16485
481.915	1544.41274
482.124	1286.37898
482.333	1563.44793
482.543	1470.38628
482.752	1548.64279
482.961	1434.43039
483.171	1574.02299
483.38	1525.37746
483.589	1827.8053
483.799	1502.11201
484.008	1669.19636
484.217	1836.26381
484.426	1882.78425
484.636	1874.32617
484.845	1836.26381
485.054	1857.40976
485.263	1969.47454
485.472	1967.36026
485.682	2043.47034
485.891	1848.95144
486.1	2119.57144
486.309	2187.20851
486.518	2335.13372
486.727	2073.06634
486.936	2161.84558
487.146	2233.70405
487.355	2409.07873
487.564	2248.4972
487.773	2552.70589
487.982	2297.10012
488.191	2502.01985
488.4	2487.23519
488.609	2544.25868
488.818	2502.01985
489.027	2917.85309
489.236	2556.92942
489.445	2660.39095
489.654	2685.72392
489.863	2892.53812
490.072	2871.44072
490.281	2738.49497
490.49	2837.68193
490.698	2831.35175
490.907	2976.91314
491.116	3031.74409
491.325	2964.2584
491.534	3158.23693
491.743	3107.64664
491.952	3231.99765
492.16	3175.0983
492.369	3387.88097
492.578	3288.88485
492.787	3116.079
492.996	3210.92522
493.204	3446.83899
493.413	3402.62178
493.622	3613.10829
493.831	3341.54712
494.039	3745.61905
494.248	3396.30439
494.457	3798.18148
494.665	3615.21222
494.874	3714.07577
495.083	3598.38022
495.291	3964.19737
495.5	3697.25091
495.709	3875.95129
495.917	3909.57303
496.126	3928.483
496.335	3932.685
496.543	4153.17456
496.752	4073.40465
496.96	4041.90826
497.169	4117.49175
497.377	4027.20835
497.586	3978.90158
497.794	4478.23327
498.003	4337.78762
498.211	4492.90103
498.42	4331.49673
498.628	4486.61498
498.837	4427.93565
499.045	4446.79874
499.254	4268.57711
499.462	4555.75057
499.671	4430.03164
499.879	4578.7904
500.087	4524.32829
500.296	4729.52975
500.504	4725.34412
500.713	4662.54885
500.921	4645.80002
501.129	4716.97259
501.338	4591.35645
501.546	4901.06238
501.754	4532.70805
501.962	4846.69057
502.171	4884.33424
502.379	5166.42411
502.587	4861.33065
502.795	5122.57116
503.004	4880.15197
503.212	5130.92489
503.42	5080.79693
503.628	5208.17927
503.837	5022.29743
504.045	5072.44097
504.253	5143.45479
504.461	5360.50633
504.669	5199.82898
504.877	5241.57669
505.085	5312.52633
505.294	5564.8036
505.502	5241.57669
505.71	5402.21799
505.918	5498.11913
506.126	5616.88405
506.334	5241.57669
506.542	5552.3021
506.75	5458.51382
506.958	5583.55425
507.166	5535.63211
507.374	5635.6294
507.582	5673.11438
507.79	5864.58484
507.998	5710.59171
508.206	5668.94976
508.414	5731.40914
508.622	5710.59171
508.83	5847.94317
509.037	5889.54452
509.245	5583.55425
509.453	5989.34929
509.661	5902.02309
509.869	6057.93357
510.077	5899.94339
510.285	6180.49009
510.492	6084.94458
510.7	6192.94889
510.908	6089.09977
511.116	6057.93357
511.324	5933.21579
511.531	6232.39616
511.739	6053.77768
511.947	6329.93995
512.155	6128.56935
512.362	6219.94004
512.57	6184.64312
512.778	6246.92724
512.985	6215.78782
513.193	6356.91103
513.401	6298.81457
513.608	6412.91528
513.816	6371.43228
514.024	6591.18629
514.231	6537.30848
514.439	6636.763
514.646	6657.47601
514.854	6657.47601
515.061	6446.09498
515.269	6584.97041
515.477	6680.25765
515.684	6715.46018
515.892	6777.56613
516.099	6771.35646
516.307	6816.88926
516.514	7019.58363
516.722	6659.54718
516.929	7139.44374
517.136	6816.88926
517.344	6986.50549
517.551	6763.07658
517.759	7096.0548
517.966	6938.94557
518.173	7031.98644
518.381	7017.51641
518.588	7085.72265
518.796	7312.9017
519.003	7203.47616
519.21	7145.64136
519.418	7385.13004
519.625	7108.45265
519.832	7422.26564
520.039	7442.89349
520.247	7546.00032
520.454	7484.14269
520.661	7663.47674
520.868	7277.80968
521.076	7665.53712
521.283	7490.32932
521.49	7574.8606
521.697	7556.30804
521.904	7690.25995
522.112	7442.89349
522.319	7704.68019
522.526	7764.41021
522.733	7892.04995
522.94	7605.77768
523.147	7719.0994
523.354	7745.8752
523.561	8105.9778
523.768	7799.41617
523.975	8122.42471
524.183	7920.86081
524.39	7910.57168
524.597	8019.61036
524.804	8241.62661
525.011	7920.86081
525.218	8161.48099
525.425	8151.20372
525.632	8184.08922
525.838	8056.62935
526.045	8235.46263
526.252	8105.9778
526.459	8229.29847
526.666	8114.20142
526.873	8467.51771
527.08	8438.78093
527.287	8670.62176
527.494	8288.87788
527.701	8590.63307
527.907	8395.66871
528.114	8779.27922
528.321	8430.56974
528.528	8787.47769
528.735	8410.0404
528.941	8943.19388
529.148	8615.248
529.355	8637.80931
529.562	8512.66793
529.768	9037.39326
529.975	8693.17756
530.182	9031.25095
530.388	8680.87467
530.595	8990.29822
530.802	8842.80981
531.008	9141.78859
531.215	9070.14958
531.422	9240.00235
531.628	9115.18228
531.835	9278.86788
532.042	9237.95662
532.248	9209.31474
532.455	9070.14958
532.661	9399.51741
532.868	9503.76189
533.074	9532.37071
533.281	9272.73162
533.487	9278.86788
533.694	9160.20665
533.9	9614.09311
534.107	9121.32245
534.313	9569.14891
534.52	9518.06669
534.726	9448.57887
534.933	9526.24051
535.139	9471.06225
535.345	9601.83636
535.552	9752.96405
535.758	9548.71721
535.965	9842.78418
536.171	9699.87474
536.377	9877.47966
536.584	9899.92741
536.79	9969.30013
536.996	9948.89814
537.203	9781.54634
537.409	9940.73693
537.615	9975.42044
537.821	9752.96405
538.028	10242.54982
538.234	9946.85786
538.44	10289.42592
538.646	10054.97277
538.853	9997.86049
539.059	10250.7027
539.265	10099.83889
539.471	10322.03118
539.677	10319.99345
539.883	10230.32009
540.09	10403.52948
540.296	10381.11954
540.502	10546.10148
540.708	10322.03118
540.914	10552.21032
541.12	10377.04484
541.326	10896.164
541.532	10635.68646
541.738	10464.63947
541.944	10513.51912
542.15	10812.75086
542.356	10843.27013
542.562	10940.9143
542.768	10601.07694
542.974	10765.94954
543.18	10788.33356
543.386	10879.88979
543.592	10837.16648
543.798	11036.499
544.004	10983.6254
544.21	11020.231
544.415	10922.60803
544.621	11207.2712
544.827	10879.88979
545.033	11321.07819
545.239	11260.11416
545.445	11396.25469
545.651	11377.96976
545.856	11176.78168
546.062	11197.10829
546.268	11546.56763
546.474	11317.0142
546.679	11107.66328
546.885	11132.05942
547.091	11593.27597
547.297	11123.92755
547.502	11414.53881
547.708	11170.68349
547.914	11170.68349
548.119	11534.38204
548.325	11536.413
548.531	11298.72577
548.736	11672.46596
548.942	11552.6603
549.147	11382.03315
549.353	11530.3201
549.559	12033.72988
549.764	11804.4192
549.97	11737.43217
550.175	11763.82213
550.381	11936.33632
550.586	11617.64359
550.792	11991.12246
550.997	11796.30006
551.203	12043.87399
551.408	12047.93158
551.614	11780.06137
551.819	11934.30709
552.025	12080.39118
552.23	12108.79171
552.435	11924.16082
552.641	12212.23831
552.846	12295.38745
553.052	12398.80038
553.257	12607.60126
553.462	12682.59117
553.668	12439.34963
553.873	12439.34963
554.078	12508.27731
554.283	12337.97142
554.489	12785.94243
554.694	12297.41533
554.899	12650.16411
555.105	12392.71776
555.31	12696.77754
555.515	12388.66264
555.72	12715.01672
555.925	12352.16539
556.131	12554.90063
556.336	12575.1706
556.541	12706.91047
556.746	12735.28193
556.951	12937.9032
557.156	12459.62326
557.361	12980.44687
557.567	13282.24295
557.772	13004.75653
557.977	12749.46723
558.182	12838.62563
558.387	12873.07032
558.592	13095.9114
558.797	12939.92914
559.002	13229.58788
559.207	13118.19221
559.412	13243.76453
559.617	12958.16237
559.822	13073.63001
560.027	13223.5121
560.232	13235.66362
560.437	13087.80914
560.642	13241.73931
560.847	13448.29051
561.051	13276.16752
561.256	13029.06547
561.461	13361.22019
561.666	13488.78589
561.871	13361.22019
562.076	13478.66219
562.281	13436.1416
562.485	13010.83383
562.69	13407.79359
562.895	13120.21771
563.1	13215.41101
563.305	13282.24295
563.509	13519.15645
563.714	13454.36491
563.919	13614.31229
564.123	13456.38971
564.328	13614.31229
564.533	13521.18112
564.737	13660.87513
564.942	13662.89956
565.147	13956.40991
565.351	13553.57542
565.556	13579.89511
565.761	13606.21422
565.965	13836.98893
566.17	13747.92279
566.374	13871.39934
566.579	13612.28777
566.784	13952.36189
566.988	13841.03725
567.193	14168.91729
567.397	13814.72293
567.602	14065.70261
567.806	13555.60003
568.011	13940.21778
568.215	13990.81764
568.42	13986.76971
568.624	14011.05715
568.828	14029.2725
569.033	13946.28985
569.237	14349.02448
569.442	14199.2735
569.646	14181.05983
569.85	14083.91739
570.055	14177.01232
570.259	14004.98532
570.463	14498.76634
570.668	14219.51072
570.872	14174.98857
571.076	14237.72405
571.281	14355.09526
571.485	14597.91559
571.689	14549.35306
571.893	14391.51964
572.098	14525.07154
572.302	14502.81331
572.506	14488.6489
572.71	14332.83566
572.914	14603.98586
573.119	14531.14194
573.323	14741.57617
573.527	14684.92187
573.731	14680.87511
573.935	14907.48891
574.139	14749.66958
574.343	14519.00113
574.547	15034.95609
574.751	14964.14118
574.955	14808.34647
575.159	15057.21214
575.364	14956.04802
575.568	14933.79179
575.772	14792.15981
575.976	14725.3893
576.18	15101.72416
576.383	15028.88626
576.587	15265.60917
576.791	14826.55642
576.995	15140.16632
577.199	15166.46884
577.403	15245.37643
577.607	14964.14118
577.811	15346.54037
578.015	14931.7685
578.219	15255.4928
578.422	15065.30524
578.626	15433.54201
578.83	15403.19251
579.034	15233.23679
579.238	15352.61023
579.442	15583.26802
579.645	15154.32922
579.849	15611.59498
580.053	15330.35409
580.257	15633.85198
580.46	15753.23227
580.664	15732.99809
580.868	15352.61023
581.071	15722.88104
581.275	15939.39194
581.479	15856.42825
581.682	15443.65853
581.886	15540.77785
582.09	15445.68184
582.293	15732.99809
582.497	15826.07619
582.7	15716.81082
582.904	15674.31952
583.107	15648.01558
583.311	15429.4954
583.515	15915.10967
583.718	15688.48324
583.922	15981.88638
584.125	15763.3494
584.329	16072.94797
584.532	16279.36601
584.735	16574.86052
584.939	16184.24966
585.142	16182.22595
585.346	15726.92786
585.549	15947.48607
585.753	15886.78058
585.956	16398.77306
586.159	16242.93801
586.363	16206.51059
586.566	16228.77173
586.769	16396.74916
586.973	16210.55806
587.176	16232.81923
587.379	16164.01263
587.582	16273.29463
587.786	16421.03613
587.989	16562.71604
588.192	16477.70687
588.395	16528.30711
588.599	16475.68289
588.802	16388.65356
589.005	16516.16294
589.208	16771.20755
589.411	16894.6951
589.615	16580.93278
589.818	16469.61095
590.021	16740.84317
590.224	16904.81744
590.427	16809.66989
590.63	16708.45509
590.833	17026.29073
591.036	16840.03553
591.239	16971.62657
591.442	16821.81608
591.645	16886.59727
591.848	17066.78397
592.051	17060.70991
592.254	17028.31536
592.457	17095.12989
592.66	17143.72418
592.863	17265.2171
593.066	17212.56889
593.269	17368.49443
593.472	17161.94746
593.675	17481.90614
593.878	17168.02193
594.081	17469.75442
594.284	17352.29355
594.486	17232.81797
594.689	17246.99249
594.892	17384.69551
595.095	17265.2171
595.298	17544.69186
595.5	17439.37561
595.703	17684.45185
595.906	17524.43807
596.109	17571.02227
596.311	17465.70387
596.514	17435.32515
596.717	17338.11793
596.92	17842.46047
597.122	17718.88788
597.325	17504.1846
597.528	17431.27471
597.73	18024.80417
597.933	17601.40419
598.136	17783.71127
598.338	17485.95674
598.541	17814.09843
598.743	18113.96044
598.946	17805.99511
599.148	18047.09258
599.351	17749.27341
599.554	17901.21257
599.756	17986.30702
599.959	18093.69704
600.161	17935.65481
600.363	17996.43772
600.566	18217.30945
600.768	18245.68144
600.971	18115.9868
601.173	18164.62053
601.376	18525.38754
601.578	17984.28088
601.78	18422.00949
601.983	18146.38263
602.185	18172.72636
602.388	18347.01592
602.59	18559.84911
602.792	18207.17677
602.995	18308.50772
603.197	17996.43772
603.399	18314.58787
603.601	18300.4009
603.804	18326.74828
604.006	18122.0659
604.208	18126.11865
604.41	18233.52193
604.613	18401.74045
604.815	18555.79475
605.017	18805.16699
605.219	18703.789
605.421	18675.40493
605.623	18419.98257
605.826	18640.93959
606.028	18572.01229
606.23	18551.74041
606.432	18545.65892
606.634	18924.80582
606.836	18576.06671
607.038	18888.30436
607.24	18651.07633
607.442	18634.85758
607.644	18397.68668
607.846	18900.47137
608.048	18701.76154
608.25	18847.74871
608.452	18819.3607
608.654	18892.36001
608.856	18932.91743
609.058	19093.13498
609.26	18673.37752
609.462	18511.19781
609.664	18768.66978
609.866	18640.93959
610.067	18756.50432
610.269	18821.38839
610.471	18685.54201
610.673	19147.89869
610.875	19093.13498
611.077	19050.54304
611.278	18898.44352
611.48	19186.4379
611.682	18513.2249
611.884	19156.01209
612.085	18904.52707
612.287	19046.48676
612.489	18965.36452
612.69	19153.98373
612.892	18959.28061
613.094	18997.81264
613.295	18606.47537
613.497	19245.26376
613.699	19026.20559
613.9	19070.82469
614.102	19338.58083
614.304	19123.5589
614.505	18553.76758
614.707	19162.09718
614.908	18821.38839
615.11	19089.07853
615.311	19206.72229
615.513	18892.36001
615.714	19202.66538
615.916	19099.21969
616.117	19107.3327
616.319	19336.55211
616.52	19030.26179
616.722	19129.64379
616.923	19022.14941
617.124	19099.21969
617.326	19032.2899
617.527	19237.14964
617.729	19421.76211
617.93	19330.46596
618.131	19322.35115
618.333	18969.42047
618.534	18961.30857
618.735	19022.14941
618.937	19127.61549
619.138	18890.33219
619.339	19160.06881
619.54	19160.06881
619.742	19032.2899
619.943	18975.50444
620.144	18746.36655
620.345	19103.27619
620.546	18997.81264
620.748	19776.88283
620.949	19289.89258
621.15	19415.67544
621.351	19433.93557
621.552	19437.99342
621.753	19377.12739
621.954	19679.46556
622.155	19291.92121
622.356	19502.9213
622.558	19348.72452
622.759	19243.23522
622.96	19178.32426
623.161	19584.08715
623.362	19253.37794
623.563	19724.11394
623.764	19537.41597
623.965	19892.57841
624.166	19646.99528
624.366	19440.02235
624.567	18859.91524
624.768	19300.03577
624.969	19310.17906
625.17	19667.28908
625.371	19529.29947
625.572	19632.78986
625.773	19687.58329
625.973	19724.11394
626.174	19878.36944
626.375	19679.46556
626.576	19766.73475
626.777	19894.60828
626.977	19642.93657
627.178	19884.45897
627.379	19805.29803
627.58	19616.55536
627.78	19782.97174
627.981	19616.55536
628.182	19977.83651
628.382	19809.35741
628.583	19421.76211
628.784	19245.26376
628.984	19468.42783
629.185	19626.70189
629.386	19314.23641
629.586	20148.37498
629.787	19612.49677
629.987	19819.50593
630.188	19787.03102
630.388	19720.05492
630.589	19468.42783
630.79	19829.65456
630.99	19573.94105
631.191	19971.7464
631.391	20205.22773
631.591	20268.17569
631.792	19837.77354
631.992	20091.52552
632.193	20124.01052
632.393	20251.93067
632.594	19900.69791
632.794	19847.92236
632.994	19858.07128
633.195	19977.83651
633.395	19545.53254
633.595	19862.13088
633.796	19815.44651
633.996	20205.22773
634.196	20054.98119
634.397	20044.83023
634.597	19791.09033
634.797	20245.83885
634.997	20150.40538
635.198	20079.34393
635.398	20075.28343
635.598	20050.92079
635.798	20083.40444
635.998	19827.62483
636.199	20337.22003
636.399	20408.30016
636.599	20032.64921
636.799	20351.43565
636.999	20006.25753
637.199	20229.5942
637.399	20034.67937
637.599	20146.34458
637.799	19825.5951
637.999	20377.83662
638.199	20333.15847
638.399	20475.32327
638.599	19935.20653
638.799	20459.07483
638.999	20406.26923
639.199	20780.0311
639.399	20310.82015
639.599	20574.85085
639.799	20002.19733
639.999	20209.28876
640.199	20085.43471
640.399	20333.15847
640.599	19509.00851
640.799	20863.33418
640.998	20733.30316
641.198	20436.73365
641.398	20375.80575
641.598	20461.10587
641.798	20536.25733
641.997	20392.05282
642.197	20589.06989
642.397	20436.73365
642.597	20613.44587
642.796	20546.41337
642.996	20239.74708
643.196	20755.65103
643.395	20558.60076
643.595	20629.69685
643.795	20798.31655
643.994	20658.13672
644.194	20741.4296
644.394	21005.57498
644.593	20723.1452
644.793	21147.83587
644.992	20981.18941
645.192	20952.74033
645.392	20822.69767
645.591	21029.96114
645.791	21105.15551
645.99	20814.57056
646.19	20698.76652
646.389	21038.08999
646.589	20719.08204
646.788	21080.76753
646.987	20759.71434
647.187	21097.02612
647.386	21086.86447
647.586	21231.16938
647.785	20989.31787
647.984	21225.07157
648.184	21060.44467
648.383	21153.93322
648.582	21005.57498
648.782	21304.34587
648.981	21066.54149
649.18	21125.47927
649.38	21304.34587
649.579	21174.25795
649.778	20926.32405
649.977	21513.74067
650.177	20997.44639
650.376	20881.62116
650.575	20621.57133
650.774	20836.92026
650.973	21090.92912
651.173	20952.74033
651.372	21113.28496
651.571	21151.90077
651.77	21135.6413
651.969	20977.12521
652.168	20737.36637
652.367	20993.38212
652.566	21092.96145
652.765	21090.92912
652.964	21692.67443
653.163	21485.27676
653.362	21721.14397
653.561	21418.18633
653.76	21395.82382
653.959	21009.6393
654.158	21308.41138
654.357	20956.80444
654.556	21155.96567
654.755	21322.64081
654.954	20777.99941
655.153	21296.21489
655.352	21180.35545
655.551	21168.16049
655.749	21017.76799
655.948	20930.38805
656.147	21487.30987
656.346	20903.97235
656.545	21469.01201
656.743	21127.51167
656.942	21371.4289
657.141	21538.13893
657.34	21186.45299
657.538	21216.94122
657.737	21393.79089
657.936	21501.54176
658.135	21076.70293
658.333	21412.08741
658.532	21253.52831
658.731	21540.17215
658.929	21487.30987
659.128	21216.94122
659.326	21452.74752
659.525	21241.33247
659.724	21416.15335
659.922	21103.12315
660.121	21273.85503
660.319	21349.06741
660.518	21290.1167
660.716	21562.53776
660.915	21607.27043
661.113	22054.70057
661.312	21713.00973
661.51	21782.15268
661.709	21853.33392
661.907	21367.36314
662.105	21680.47343
662.304	21774.01798
662.502	21552.37151
662.701	22142.17441
662.899	21609.30377
663.097	21391.75796
663.296	21922.48593
663.494	21863.50306
663.692	21542.20536
663.891	21881.80774
664.089	21674.37299
664.287	21637.77106
664.485	21464.94587
664.684	21889.94326
664.882	21501.54176
665.08	21460.87974
665.278	21517.80701
665.476	21544.23859
665.675	21393.79089
665.873	21469.01201
666.071	21564.57102
666.269	21942.8256
666.467	21576.77067
666.665	21741.47981
666.863	21383.62629
667.061	21849.2663
667.259	21741.47981
667.457	22060.80317
667.655	21542.20536
667.853	21755.71514
668.051	21710.97619
668.249	21694.70794
668.447	21359.23166
668.645	21267.75697
668.843	21511.70751
669.041	21430.38427
669.239	20920.22808
669.437	21619.47057
669.635	21778.08532
669.833	21609.30377
670.031	21324.6736
670.229	21580.83726
670.426	21611.33713
670.624	21615.40384
670.822	21532.03931
671.02	21515.77384
671.218	21334.83762
671.415	21593.0371
671.613	21302.31312
671.811	21255.56096
672.009	21438.5163
672.206	21776.05165
672.404	21403.95558
672.602	21759.78241
672.799	21328.73919
672.997	21617.43721
673.195	21347.03457
673.392	21574.73739
673.59	21361.26453
673.788	21251.49566
673.985	21186.45299
674.183	21713.00973
674.38	21414.12038
674.578	21735.37902
674.775	21442.58235
674.973	21554.40475
675.17	21206.77838
675.368	21483.24365
675.565	21416.15335
675.763	21727.24468
675.96	21544.23859
676.158	21294.18215
676.355	20971.02894
676.553	21883.84161
676.75	21214.90865
676.947	21765.88335
677.145	21489.34298
677.342	21530.00612
677.539	21641.83788
677.737	21664.20566
677.934	21133.60889
678.131	21469.01201
678.329	21713.00973
678.526	21649.97156
678.723	21560.5045
678.92	21849.2663
679.118	21527.97292
679.315	21147.83587
679.512	21434.45028
679.709	21666.23912
679.906	21294.18215
680.104	21649.97156
680.301	21200.68072
680.498	21060.44467
680.695	21019.80017
680.892	21176.29045
681.089	21021.83236
681.286	21249.46301
681.483	20865.36605
681.68	21141.73857
681.877	21036.05777
682.075	21446.6484
682.272	21129.54407
682.469	21469.01201
682.665	21040.12222
682.862	21340.93607
683.059	21139.70614
683.256	21194.5831
683.453	21109.22023
683.65	20930.38805
683.847	21086.86447
684.044	21084.83215
684.241	20861.30232
684.438	21371.4289
684.635	20881.62116
684.831	21178.32295
685.028	20962.90063
685.225	21088.89679
685.422	20558.60076
685.619	20755.65103
685.815	20654.07383
686.012	20828.79304
686.209	20371.74403
686.405	20928.35605
686.602	20826.76124
686.799	20493.60309
686.996	21046.21891
687.192	21066.54149
687.389	20548.44459
687.586	20495.63421
687.782	21015.73581
687.979	20796.28482
688.175	20670.32549
688.372	20727.20837
688.568	20233.65534
688.765	20812.53879
688.962	20538.28853
689.158	20881.62116
689.355	20828.79304
689.551	20851.14305
689.748	20359.55895
689.944	20562.66326
690.14	20422.5168
690.337	20587.03858
690.533	20725.17678
690.73	20371.74403
690.926	20524.07022
691.123	20367.68232
691.319	20412.36204
691.515	20818.6341
691.712	20471.26114
691.908	20593.13251
692.104	20560.63201
692.301	20546.41337
692.497	20426.57874
692.693	20452.98173
692.889	20398.14554
693.086	20355.49729
693.282	20390.02192
693.478	20373.77489
693.674	20255.9919
693.87	20300.66654
694.067	20396.11463
694.263	20247.86945
694.459	20365.65147
694.655	20686.57741
694.851	20416.42393
695.047	20461.10587
695.243	20191.01423
695.439	20057.01139
695.635	19906.78758
695.831	19992.04692
696.027	19758.61636
696.224	20221.47198
696.42	20191.01423
696.615	20377.83662
696.811	20144.31419
697.007	20260.05315
697.203	20061.07182
697.399	19866.1905
697.595	20040.76987
697.791	20093.5558
697.987	20379.86749
698.183	20365.65147
698.379	19971.7464
698.575	20251.93067
698.77	20046.86041
698.966	19904.75768
699.162	20067.16248
699.358	20426.57874
699.554	20152.43578
699.749	20365.65147
699.945	20130.10158
700.141	20493.60309
700.337	20416.42393
700.532	20148.37498
700.728	20012.34785
700.924	20093.5558
701.119	20044.83023
701.315	19541.47425
701.511	19805.29803
701.706	19925.05681
701.902	19927.08675
702.097	19902.72779
702.293	19983.92666
702.489	19935.20653
702.684	19870.25013
702.88	19618.58466
703.075	19608.43821
703.271	19598.29186
703.466	20124.01052
703.662	20101.67697
703.857	19513.06667
704.053	19890.54854
704.248	19941.29641
704.443	20099.64667
704.639	19811.3871
704.834	20398.14554
705.03	20050.92079
705.225	20201.16671
705.42	20280.35963
705.616	20406.26923
705.811	19657.14212
706.006	19998.13715
706.202	19898.66802
706.397	19626.70189
706.592	19776.88283
706.787	19868.22031
706.983	20197.1057
707.178	20534.22613
707.373	19894.60828
707.568	19878.36944
707.763	19640.90722
707.959	19780.9421
708.154	20020.46834
708.349	19817.47622
708.544	19904.75768
708.739	19906.78758
708.934	19730.20252
709.129	19990.01685
709.324	19697.73056
709.519	19914.90719
709.714	19598.29186
709.909	19722.08443
710.104	19433.93557
710.299	19586.11638
710.494	19646.99528
710.689	19697.73056
710.884	19711.93691
711.079	19675.40671
711.274	19782.97174
711.469	19815.44651
711.664	19555.67835
711.859	19931.14663
712.054	19671.34789
712.249	19281.7781
712.443	19346.69577
712.638	19673.3773
712.833	19174.26747
713.028	19212.80769
713.223	19091.10676
713.417	19338.58083
713.612	19233.09261
713.807	19582.05792
714.002	19500.89224
714.196	19687.58329
714.391	19440.02235
714.586	19208.75075
714.78	19058.65565
714.975	19575.97027
715.17	18914.66639
715.364	19227.00709
715.559	19153.98373
715.754	19437.99342
715.948	18861.94301
716.143	19287.86395
716.337	18910.61065
716.532	19222.9501
716.726	19070.82469
716.921	19089.07853
717.115	18788.94585
717.31	18837.61005
717.504	18989.70051
717.699	19324.37985
717.893	19178.32426
718.088	19143.84202
718.282	19186.4379
718.476	19472.48583
718.671	18764.61461
718.865	18941.0291
719.059	18835.58233
719.254	18993.75656
719.448	18837.61005
719.642	18776.78016
719.837	18503.08947
720.031	18624.72099
720.225	18442.27891
720.419	18584.1756
720.614	18659.1858
720.808	18610.52993
721.002	18462.54871
721.196	18600.39357
721.39	18638.91225
721.585	18857.88747
721.779	18910.61065
721.973	18707.84393
722.167	18440.25195
722.361	18371.33759
722.555	18490.92708
722.749	18462.54871
722.943	18610.52993
723.137	18519.3062
723.331	18304.4543
723.525	18509.17072
723.719	18509.17072
723.913	18513.2249
724.107	18211.22983
724.301	18300.4009
724.495	18456.46773
724.689	18286.21411
724.883	18616.61179
725.077	18661.21318
725.271	18413.90182
725.465	18170.69989
725.659	18156.51476
725.853	18446.33284
726.046	18109.90773
726.24	17994.41157
726.434	17966.04587
726.628	18590.25731
726.822	18138.277
727.015	18701.76154
727.209	18178.80576
727.403	18574.0395
727.596	18505.11655
727.79	18685.54201
727.984	18598.36631
728.177	18203.12373
728.371	18515.252
728.565	18379.44494
728.758	18215.28291
728.952	18576.06671
729.146	18302.4276
729.339	18748.3941
729.533	18608.50265
729.726	18501.0624
729.92	18618.63908
730.113	18689.59687
730.307	18608.50265
730.5	18494.9812
730.694	18130.17142
730.887	18282.16078
731.081	18330.80178
731.274	18401.74045
731.468	18085.59178
731.661	18460.52172
731.854	18454.44075
732.048	18213.25637
732.241	18097.74969
732.435	18146.38263
732.628	18087.61809
732.821	18018.72559
733.014	17933.62877
733.208	17759.40209
733.401	18077.48658
733.594	17927.55066
733.788	18192.99118
733.981	18261.89433
734.174	18334.85529
734.367	18417.95565
734.56	18669.32272
734.754	18227.44222
734.947	18334.85529
735.14	18304.4543
735.333	18197.04419
735.526	17959.96759
735.719	17722.93924
735.912	17968.07197
736.105	17822.2018
736.298	17842.46047
736.491	17783.71127
736.684	17720.91356
736.877	17992.38543
737.07	17951.86328
737.263	17842.46047
737.456	18018.72559
737.649	17688.5031
737.842	17903.23855
738.035	17891.08269
738.228	17471.7797
738.421	17729.0163
738.614	17828.27936
738.807	17601.40419
739	17729.0163
739.192	17783.71127
739.385	17901.21257
739.578	17931.60273
739.771	18014.67322
739.964	17637.86345
740.156	17868.79726
740.349	17891.08269
740.542	17759.40209
740.735	17615.58266
740.927	17769.53085
741.12	17619.63369
741.313	17631.78684
741.505	17724.96492
741.698	17706.73387
741.891	17411.02269
742.083	17783.71127
742.276	17767.5051
742.468	18199.0707
742.661	17733.0677
742.854	17380.64522
743.046	17639.889
743.239	17745.22196
743.431	17828.27936
743.624	17927.55066
743.816	17571.02227
744.009	17848.53814
744.201	17577.09859
744.393	17605.45516
744.586	17694.57999
744.778	17720.91356
744.971	17739.14482
745.163	17643.9401
745.355	17190.29524
745.548	17080.95686
745.74	17536.5903
745.932	17658.11906
746.125	17352.29355
746.317	17686.47747
746.509	17307.74212
746.702	17593.30227
746.894	17214.59378
747.086	17366.46931
747.278	17573.04771
747.471	17303.69206
747.663	17078.93215
747.855	17107.27831
748.047	17218.64358
748.239	17453.5523
748.431	17263.19213
748.623	17524.43807
748.815	16999.9707
749.008	17550.76806
749.2	17356.34375
749.392	17490.00736
749.584	17026.29073
749.776	17327.99259
749.968	17012.11835
750.16	16987.82315
750.352	17036.41393
750.544	17103.22883
750.736	17354.31865
750.928	17528.4888
751.12	17022.24146
751.311	16916.96435
751.503	17133.60023
751.695	17103.22883
751.887	16799.54814
752.079	17040.46324
752.271	16890.64618
752.463	17006.04451
752.654	16953.40561
752.846	17101.20409
753.038	16833.96235
753.23	16730.72183
753.421	16534.37923
753.613	16362.34309
753.805	16791.45078
753.997	16779.30481
754.188	16761.08603
754.38	16536.40328
754.572	16787.40211
754.763	17123.47636
754.955	16779.30481
755.146	16842.05992
755.338	17024.26609
755.53	16991.87232
755.721	16775.25618
755.913	16761.08603
756.104	16538.42732
756.296	16744.89172
756.487	16534.37923
756.679	16833.96235
756.87	16261.15194
757.062	16514.13891
757.253	16639.6324
757.445	16692.26127
757.636	16718.5763
757.827	16898.74403
758.019	16210.55806
758.21	16651.77739
758.401	16773.23186
758.593	16325.91374
758.784	16210.55806
758.975	16297.58022
759.167	15921.18022
759.358	16123.53905
759.549	16358.29535
759.74	16024.38142
759.932	15773.46656
760.123	15939.39194
760.314	16074.9716
760.505	15737.04492
760.696	15937.36841
760.888	16056.75903
761.079	15737.04492
761.27	15686.45985
761.461	15813.93544
761.652	15911.06264
761.843	15773.46656
762.034	15686.45985
762.225	15530.66119
762.416	15767.39626
762.607	15801.79473
762.798	15836.19352
762.989	16115.44441
763.18	16279.36601
763.371	15726.92786
763.562	15987.95706
763.753	15777.51342
763.944	15807.86508
764.135	15781.5603
764.326	15824.05273
764.517	15601.47819
764.708	15666.22598
764.899	15297.9816
765.089	15261.56262
765.28	15512.45124
765.471	15824.05273
765.662	15308.098
765.853	15360.70338
766.043	15194.79463
766.234	15257.51607
766.425	15085.53798
766.615	15304.05144
766.806	15603.50154
766.997	15376.88969
767.187	15269.65572
767.378	15650.03895
767.569	15443.65853
767.759	15393.07603
767.95	15554.9412
768.141	15720.85763
768.331	15476.03149
768.522	15170.51538
768.712	15277.74883
768.903	15645.9922
769.093	15146.23613
769.284	15166.46884
769.474	15053.16559
769.665	14820.48644
769.855	15142.18959
770.046	15085.53798
770.236	14960.0946
770.426	14990.4439
770.617	15111.84053
770.807	14887.25587
770.998	15109.81725
771.188	14887.25587
771.378	14703.13226
771.569	14824.53309
771.759	14606.00928
771.949	14610.05612
772.139	14935.81509
772.33	14650.52427
772.52	14496.74286
772.71	14636.36047
772.9	14365.2132
773.09	14593.86874
773.281	14468.41391
773.471	14620.1732
773.661	14425.91998
773.851	14782.04312
774.041	14233.67665
774.231	14124.39401
774.421	14029.2725
774.611	14156.77468
774.802	14081.89353
774.992	14195.22603
775.182	13891.64038
775.372	13952.36189
775.562	13664.92399
775.752	13691.24126
775.942	13816.74712
776.131	13802.57769
776.321	14213.43957
776.511	14089.98894
776.701	14055.58321
776.891	13960.45792
777.081	13982.72177
777.271	13905.80895
777.461	14172.96481
777.651	14031.29641
777.84	13861.27871
778.03	13652.77737
778.22	13839.01309
778.41	13693.26565
778.599	13774.23838
778.789	13713.5093
778.979	13960.45792
779.169	13778.28689
779.358	13729.704
779.548	13863.30284
779.738	13832.94059
779.927	13938.19375
780.117	14118.32257
780.307	14043.43985
780.496	13782.33539
780.686	13863.30284
780.875	13521.18112
781.065	13648.72847
781.254	13351.09525
781.444	13494.86007
781.633	13618.3613
781.823	13709.4606
782.012	13531.30444
782.202	13768.1656
782.391	13290.34348
782.581	13504.98362
782.77	13225.53737
782.96	13474.61268
783.149	13187.05661
783.338	13288.31835
783.528	13211.36043
783.717	13180.98055
783.906	13247.81497
784.096	13106.03911
784.285	13138.447
784.474	13008.80807
784.663	12879.14863
784.853	12950.05877
785.042	12749.46723
785.231	13012.85959
785.42	12767.70506
785.61	12917.64351
785.799	12779.86336
785.988	12759.59941
786.177	12457.59593
786.366	12627.86962
786.555	12869.01809
786.744	12682.59117
786.933	12680.56453
787.122	12834.5732
787.312	12660.29774
787.501	12617.73552
787.69	12285.24795
787.879	12496.11415
788.068	12575.1706
788.257	12623.816
788.445	12431.23999
788.634	12672.45788
788.823	12473.81441
789.012	12982.4727
789.201	12542.73835
789.39	12526.52162
789.579	12571.11666
789.768	12599.49374
789.957	12504.22295
790.145	12498.14136
790.334	12785.94243
790.523	12753.52012
790.712	12250.77234
790.9	12269.02439
791.089	12029.67218
791.278	12344.05459
791.467	12068.21906
791.655	12220.35095
791.844	12035.75871
792.033	11889.66197
792.221	11826.74612
792.41	11845.01285
792.599	11769.91191
792.787	12262.94044
792.976	11942.42396
793.164	12260.91244
793.353	12017.49889
793.541	11999.23843
793.73	12127.04841
793.918	12112.84881
794.107	11871.39691
794.295	12157.47488
794.484	12252.80037
794.672	12019.52779
794.861	12039.81637
795.049	12262.94044
795.238	12066.19035
795.426	12254.8284
795.614	12129.07689
795.803	11991.12246
795.991	12147.33291
796.179	12120.96291
796.368	11845.01285
796.556	11946.48235
796.744	11757.73227
796.932	11737.43217
797.121	11507.97876
797.309	11993.15146
797.497	11481.57388
797.685	11611.55181
797.874	11690.73863
798.062	11836.89439
798.25	11215.40135
798.438	11865.3084
798.626	11607.49058
798.814	11495.79209
799.002	11463.29263
799.19	11617.64359
799.378	11495.79209
799.566	11877.48534
799.755	11650.13172
799.943	11692.76888
800.131	11497.82323
800.318	11587.18385
800.506	11601.39866
800.694	11532.35108
800.882	11207.2712
801.07	11312.95018
801.258	11097.49777
801.446	11371.87461
801.634	11071.06617
801.822	11329.20603
802.01	11239.79077
802.197	11574.99938
802.385	11440.94782
802.573	11627.79638
802.761	11219.46635
802.949	11495.79209
803.136	11375.93805
803.324	11639.97943
803.512	11611.55181
803.699	11552.6603
803.887	11536.413
804.075	11497.82323
804.262	11471.41773
804.45	11487.66746
804.638	11243.85553
804.825	11566.87621
805.013	10999.895
805.201	11337.33372
805.388	11064.96631
805.576	11357.65224
805.763	11377.96976
805.951	11288.56518
806.138	11188.97777
806.326	11398.2863
806.513	11292.62945
806.701	11438.91642
806.888	10977.52412
807.075	11288.56518
807.263	11251.98493
807.45	11627.79638
807.638	11440.94782
807.825	11743.52229
808.012	11394.22307
808.2	11457.19871
808.387	11473.44898
808.574	11788.18078
808.761	11674.49629
808.949	11873.42639
809.136	11889.66197
809.323	11976.91921
809.51	11625.76584
809.698	11642.0099
809.885	11386.09649
810.072	11877.48534
810.259	11597.33733
810.446	11771.94182
810.633	11621.70474
810.82	11826.74612
811.008	11475.48022
811.195	11459.23003
811.382	11314.98219
811.569	11501.88547
811.756	11351.55679
811.943	11522.19611
812.13	11432.82215
812.317	11727.2818
812.504	11786.15094
812.691	11723.22159
812.878	11142.22402
813.064	11430.79071
813.251	11459.23003
813.438	11296.69367
813.625	11308.88611
813.812	11195.07568
813.999	11207.2712
814.186	11205.23864
814.372	11375.93805
814.559	11597.33733
814.746	11223.53132
814.933	11205.23864
815.12	11312.95018
815.306	11211.3363
815.493	11188.97777
815.68	11406.41263
815.866	11156.45402
816.053	11317.0142
816.24	10999.895
816.426	11245.8879
816.613	10865.64925
816.799	11365.77937
816.986	11170.68349
817.173	11408.44419
817.359	11221.49884
817.546	11416.57033
817.732	11211.3363
817.919	11264.17872
818.105	10865.64925
818.292	10845.30465
818.478	11329.20603
818.665	11369.84287
818.851	11227.59625
819.037	11288.56518
819.224	11089.36517
819.41	11396.25469
819.597	11347.49311
819.783	11457.19871
819.969	11312.95018
820.156	11465.32392
820.342	11081.23239
820.528	11087.33199
820.714	11073.09944
820.901	11343.42938
821.087	11262.14644
821.273	11337.33372
821.459	11260.11416
821.646	11398.2863
821.832	11146.28979
822.018	11499.85435
822.204	11119.86154
822.39	11105.6302
822.576	10963.2874
822.762	10997.86134
822.948	10928.71022
823.134	10942.94828
823.32	10702.85954
823.507	10953.11798
823.693	10737.4587
823.879	10778.15918
824.065	10892.09551
824.25	10666.22132
824.436	10706.93021
824.622	10645.86505
824.808	10560.35526
824.994	10938.88032
825.18	10558.31904
825.366	10715.0714
825.552	10621.43591
825.738	10873.78677
825.923	10786.29871
826.109	10928.71022
826.295	10894.12976
826.481	10841.23559
826.667	10611.25658
826.852	10776.12427
827.038	10694.71805
827.224	10936.84632
827.409	10454.45528
827.595	10654.00771
827.781	10195.66654
827.966	10476.86007
828.152	10242.54982
828.338	10299.61543
828.523	10218.08988
828.709	10258.85536
828.894	10195.66654
829.08	10336.29491
829.266	10238.4733
829.451	10089.64264
829.637	10234.39672
829.822	10436.12292
830.008	9814.2082
830.193	10183.43492
830.378	9991.74065
830.564	10454.45528
830.749	10193.62797
830.935	10503.33646
831.12	10124.30844
831.305	10487.04355
831.491	10057.01228
831.676	10081.48539
831.861	9989.70067
832.047	10008.05993
832.232	9673.3262
832.417	10191.58939
832.602	10024.3783
832.788	10018.25902
832.973	9961.13951
833.158	9924.41382
833.343	10042.73536
833.528	9836.661
833.714	9750.92234
833.899	10171.20282
834.084	9744.79713
834.269	10061.09128
834.454	9785.62928
834.639	9804.00178
834.824	9830.53769
835.009	9965.21985
835.194	9955.01889
835.379	9965.21985
835.564	9528.28393
835.749	9904.00862
835.934	9703.9589
836.119	9697.83263
836.304	9565.0627
836.489	9738.67178
836.674	9516.02319
836.859	9828.49656
837.044	9528.28393
837.228	9624.30665
837.413	9532.37071
837.598	9899.92741
837.783	9569.14891
837.968	9846.86623
838.152	9491.5
838.337	9826.45541
838.522	9303.41143
838.707	9405.6506
838.891	9377.02778
839.076	9327.95259
839.261	9158.16027
839.445	9428.13773
839.63	9311.59209
839.815	9460.84277
839.999	9280.91327
840.184	9495.58736
840.368	9440.40261
840.553	9565.0627
840.737	9430.18192
840.922	9215.45257
841.106	9311.59209
841.291	9321.81753
841.475	8738.28246
841.66	9072.1967
841.844	8822.31797
842.029	8846.90796
842.213	8783.37849
842.397	8935.00087
842.582	8738.28246
842.766	9160.20665
842.951	8533.18772
843.135	8797.72538
843.319	8574.22162
843.504	8594.73574
843.688	8656.2669
843.872	8848.95701
844.056	8797.72538
844.241	8910.42012
844.425	8496.25073
844.609	8748.53233
844.793	8660.36838
844.977	8912.46862
845.161	8381.29608
845.346	8803.87377
845.53	8609.09452
845.714	8639.86023
845.898	8295.04032
846.082	8590.63307
846.266	8401.82812
846.45	8822.31797
846.634	8274.49816
846.818	8424.41114
847.002	8206.69505
847.186	8535.23959
847.37	8034.00741
847.554	8272.44383
847.738	8140.92595
847.922	8395.66871
848.106	8356.65508
848.29	8391.56234
848.473	8315.58053
848.657	8311.47264
848.841	8120.36892
849.025	8463.41268
849.209	7957.89741
849.392	7943.49508
849.576	8112.14555
849.76	7933.20708
849.944	7822.06387
850.127	7920.86081
850.311	7968.18418
850.495	8212.85986
850.678	8013.43989
850.862	8325.8499
851.046	7799.41617
851.229	8239.57197
851.413	7855.00148
851.596	8040.17728
851.78	7861.17669
851.964	8167.64711
852.147	7951.72511
852.331	8031.95075
852.514	7644.93243
852.698	7817.94629
852.881	7515.07392
853.065	7616.08231
853.248	7595.47252
853.431	7770.58817
853.615	7451.14402
853.798	8040.17728
853.982	7628.44716
854.165	7739.69649
854.348	7488.26713
854.532	7805.59306
854.715	7444.95615
854.898	7706.74014
855.081	7488.26713
855.265	7834.41609
855.448	7597.53359
855.631	7356.24192
855.814	7473.8312
855.997	7523.32143
856.181	7321.15772
856.364	7628.44716
856.547	7360.36905
856.73	7420.20273
856.913	7325.2856
857.096	7440.8308
857.279	7261.29359
857.462	7281.93848
857.645	7065.05667
857.828	7364.4961
858.011	7358.30549
858.194	7259.22898
858.377	7215.86706
858.56	7504.76405
858.743	7172.49539
858.926	7075.38994
859.109	7096.0548
859.292	7093.98842
859.475	6810.68089
859.658	6936.87748
859.841	6812.75037
860.023	7050.58915
860.206	6564.24934
860.389	6881.03039
860.572	6514.50932
860.755	7038.18755
860.937	6918.26362
861.12	6912.05859
861.303	6845.85893
861.486	6897.5794
861.668	6645.04848
861.851	6628.47716
862.034	6761.00656
862.216	6785.84537
862.399	6553.88793
862.581	6622.26253
862.764	6485.48814
862.947	6725.8126
863.129	6620.19094
863.312	6371.43228
863.494	6491.70735
863.677	6808.61139
863.859	6512.43653
864.042	6454.38898
864.224	6487.56123
864.406	6545.59839
864.589	6263.53278
864.771	6388.0266
864.954	6329.93995
865.136	6450.24202
865.318	6222.01612
865.501	6271.83498
865.683	6207.48308
865.865	6412.91528
866.048	6224.09218
866.23	6516.58208
866.412	6192.94889
866.594	6288.43827
866.777	6165.95376
866.959	6157.64677
867.141	6024.68379
867.323	6240.69978
867.505	5964.40319
867.687	5951.92887
867.869	5916.58035
868.052	6041.30943
868.234	5852.10373
868.416	6325.7902
868.598	6128.56935
868.78	6222.01612
868.962	6219.94004
869.144	6072.47845
869.326	5852.10373
869.508	5864.58484
869.69	5858.34439
869.872	6138.95467
870.054	6030.91858
870.236	6091.17732
870.417	6120.26067
870.599	6182.56662
870.781	5983.11308
870.963	6211.63549
871.145	5770.95577
871.327	5976.87667
871.508	5781.36136
871.69	5966.48216
871.872	5741.81698
872.054	5910.34167
872.235	5716.83719
872.417	5877.06511
872.599	5598.13678
872.78	6072.47845
872.962	5924.89826
873.144	5964.40319
873.325	5541.88353
873.507	5951.92887
873.689	5781.36136
873.87	5960.24518
874.052	5687.6898
874.233	5712.67356
874.415	5591.88727
874.596	5822.97782
874.778	5400.13263
874.959	5556.46936
875.141	5702.26407
875.322	5762.63087
875.503	5737.65391
875.685	5989.34929
875.866	5639.79477
876.048	5773.03693
876.229	5414.72965
876.41	5550.21843
876.592	5550.21843
876.773	5777.19919
876.954	5562.72007
877.136	5739.73546
877.317	5752.22422
877.498	5627.29837
877.679	5531.46438
877.86	5514.79251
878.042	5498.11913
878.223	5756.38695
878.404	5516.87657
878.585	5750.14282
878.766	5493.95055
878.947	5902.02309
879.128	5458.51382
879.309	5864.58484
879.49	5708.50983
879.672	5825.0584
879.853	5550.21843
880.034	5581.47094
880.215	5585.63754
880.396	5783.44241
880.576	5716.83719
880.757	5949.84973
880.938	5731.40914
881.119	5889.54452
881.3	5681.44333
881.481	6022.60548
881.662	5727.24584
881.843	6060.01148
882.023	5997.6639
882.204	5906.18243
882.385	5683.52551
882.566	5854.18397
882.747	5902.02309
882.927	6074.5562
883.108	5710.59171
883.289	5856.26419
883.469	5693.93606
883.65	5768.87458
883.831	5708.50983
884.011	5889.54452
884.192	5731.40914
884.373	5887.46468
884.553	5723.08245
884.734	6062.08937
884.914	5677.2789
885.095	5702.26407
885.275	5585.63754
885.456	6124.41506
885.636	5818.8166
885.817	6091.17732
885.997	5947.77057
886.178	6174.26038
886.358	5922.81882
886.538	6230.3202
886.719	5924.89826
886.899	5931.13645
887.08	5814.65528
887.26	5883.30492
887.44	5654.37284
887.621	5939.4537
887.801	5750.14282
887.981	5818.8166
888.161	5539.79975
888.342	5623.13271
888.522	5541.88353
888.702	5650.2078
888.882	5739.73546
889.062	5956.08707
889.242	5639.79477
889.423	5723.08245
889.603	5748.06139
889.783	5785.52343
889.963	5583.55425
890.143	5841.70215
890.323	5679.36113
890.503	6020.52714
890.683	5814.65528
890.863	5714.75538
891.043	5664.78504
891.223	5733.49076
891.403	5739.73546
891.583	5710.59171
891.763	5543.96729
891.943	5841.70215
892.122	5481.44424
892.302	5760.54959
892.482	5618.96696
892.662	5681.44333
892.842	5548.13474
893.022	5710.59171
893.201	5631.46393
893.381	5789.68541
893.561	5658.53779
893.741	5745.97994
893.92	5387.61998
894.1	5573.13746
894.28	5443.92025
894.459	5341.73303
894.639	5345.90504
894.819	5264.53394
894.998	5283.31505
895.178	5564.8036
895.357	5373.02082
895.537	5571.05403
895.716	5373.02082
895.896	5606.46913
896.075	5256.18618
896.255	5277.05489
896.434	5274.96812
896.614	5310.43996
896.793	5322.95782
896.973	5166.42411
897.152	5030.65561
897.331	5183.12729
897.511	4926.15184
897.69	5210.26678
897.87	4863.422
898.049	5089.15252
898.228	4865.51333
898.407	5034.83457
898.587	4813.22332
898.766	5160.16003
898.945	4846.69057
899.124	5047.37087
899.304	4855.05647
899.483	5172.68797
899.662	4763.01153
899.841	4901.06238
900.02	4708.6007
900.199	4852.96503
900.378	4700.22844
900.557	4645.80002
900.737	4388.10776
900.916	4775.5657
901.095	4513.85309
901.274	4595.54495
901.453	4490.8057
901.632	4505.47253
901.811	4293.74728
901.989	4538.99264
902.168	4270.67474
902.347	4576.69598
902.526	4494.99633
902.705	4505.47253
902.884	4272.77235
903.063	4652.081
903.242	4222.4238
903.42	4337.78762
903.599	4318.91435
903.778	4388.10776
903.957	4172.063
904.135	4423.74362
904.314	4006.20674
904.493	4367.14256
904.672	4025.10829
904.85	3938.98784
905.029	3955.79451
905.207	4006.20674
905.386	3705.66349
905.565	4132.1854
905.743	3890.66143
905.922	3943.18963
906.1	3791.87463
906.279	3806.59033
906.457	3400.516
906.636	3903.26935
906.814	3564.71263
906.993	3693.0445
907.171	3646.76898
907.35	3781.36283
907.528	3356.29062
907.707	3474.20759
907.885	3434.2063
908.063	3459.47103
908.242	3250.96142
908.42	3503.67806
908.598	3221.46165
908.777	3358.39677
908.955	3213.03254
909.133	3459.47103
909.311	3158.23693
909.49	3244.64031
909.668	2936.83794
909.846	3371.03327
910.024	3008.54764
910.202	3210.92522
910.38	3183.52859
910.559	3240.42616
910.737	3250.96142
910.915	3368.92723
911.093	3156.12919
911.271	3411.04471
911.449	3293.09823
911.627	3343.65339
911.805	3147.69805
911.983	3352.07828
912.161	3236.21194
912.339	3512.09754
912.517	3288.88485
912.695	3497.36326
912.872	3284.67141
913.05	3444.73358
913.228	3246.74736
913.406	3505.78296
913.584	3413.15039
913.762	3284.67141
913.939	3276.24431
914.117	3402.62178
914.295	3215.13984
914.473	3326.80277
914.65	3324.69636
914.828	3331.01553
915.006	3225.6761
915.184	3461.5763
915.361	3073.91468
915.539	3322.58994
915.716	3141.37453
915.894	3328.90916
916.072	3172.99069
916.249	3293.09823
916.427	3107.64664
916.604	3436.31179
916.782	3269.92382
916.959	3427.88971
917.137	3250.96142
917.314	3284.67141
917.492	2966.36756
917.669	3170.88306
917.847	3038.07007
918.024	3031.74409
918.201	2854.56178
918.379	3103.43037
918.556	2922.07205
918.733	2960.04003
918.911	2867.22107
919.088	2995.89425
919.265	2662.5021
919.442	2839.79196
919.62	2580.15801
919.797	2844.01198
919.974	2675.16874
920.151	3052.83016
920.328	2643.50129
920.506	2812.36047
920.683	2677.2798
920.86	2765.93266
921.037	2516.80396
921.214	2814.47067
921.391	2529.47561
921.568	2873.55053
921.745	2673.05766
921.922	2917.85309
922.099	2670.94658
922.276	2827.13157
922.453	2573.82309
922.63	2768.04316
922.807	2514.69198
922.984	2571.71142
923.161	2438.65318
923.338	2704.72244
923.514	2413.30378
923.691	2535.81128
923.868	2510.46799
924.045	2390.06549
924.222	2265.40312
924.399	2753.26939
924.575	2626.61083
924.752	2542.14685
924.929	2352.03652
925.105	2364.71321
925.282	2284.42157
925.459	2457.66422
925.635	2261.17669
925.812	2282.30845
925.989	2157.61831
926.165	2318.23028
926.342	2187.20851
926.518	2406.96619
926.695	2212.57023
926.871	2170.30002
927.048	2132.25401
927.224	2147.04999
927.401	1980.04585
927.577	2208.34336
927.754	1906.04355
927.93	2132.25401
928.107	1929.30218
928.283	1973.70308
928.459	1819.34672
928.636	2030.78592
928.812	1798.19994
928.988	1774.938
929.165	1519.03235
929.341	1916.61574
929.517	1635.35745
929.693	1819.34672
929.87	1417.50999
930.046	1635.35745
930.222	1582.483
930.398	1813.00273
930.574	1561.33292
930.751	1713.60886
930.927	1567.67796
931.103	1724.18306
931.279	1622.6677
931.455	1629.01258
931.631	1425.97019
931.807	1548.64279
931.983	1453.46586
932.159	1521.14738
932.335	1493.65183
932.511	1540.18269
932.687	1385.78433
932.863	1588.828
933.039	1315.9887
933.215	1633.24249
933.391	1337.13873
933.566	1360.40394
933.742	1167.94524
933.918	1208.12701
934.094	1098.15931
934.27	1104.50328
934.445	1003.00551
934.621	1089.70075
934.797	1019.92089
934.973	994.54797
935.148	876.15421
935.324	939.57658
935.5	800.0573
935.675	842.33194
935.851	800.0573
936.027	823.3079
936.202	707.06685
936.378	726.08599
936.553	666.91831
936.729	734.53922
936.904	707.06685
937.08	580.2967
937.255	495.80913
937.431	510.59283
937.606	415.56764
937.782	491.58535
937.957	390.23295
938.133	432.45872
938.308	413.45632
938.483	436.68165
938.659	360.67883
938.834	303.69116
939.009	257.26651
939.185	381.78858
939.36	303.69116
939.535	301.58075
939.71	371.23349
939.886	417.67897
940.061	170.77278
940.236	390.23295
940.411	236.16742
940.586	303.69116
940.761	234.05762
940.937	295.24965
941.112	269.92688
941.287	183.42829
941.462	234.05762
941.637	259.37653
941.812	259.37653
941.987	179.20971
942.162	246.71673
942.337	291.029
942.512	206.63197
942.687	250.93658
942.862	217.1799
943.037	217.1799
943.212	242.49695
943.386	259.37653
943.561	225.6186
943.736	185.53762
943.911	170.77278
944.086	160.22709
944.26	255.15652
944.435	240.38709
944.61	196.08454
944.785	234.05762
944.959	221.39921
945.134	174.9912
945.309	179.20971
945.483	238.27725
945.658	130.70195
945.833	147.57295
946.007	225.6186
946.182	156.00896
946.357	221.39921
946.531	227.72833
946.706	177.10045
946.88	174.9912
947.055	204.52245
947.229	170.77278
947.404	120.15828
947.578	174.9912
947.752	183.42829
947.927	151.79091
948.101	92.74727
948.276	257.26651
948.45	257.26651
948.624	153.89993
948.799	284.69817
948.973	217.1799
949.147	204.52245
949.321	166.55444
949.496	156.00896
949.67	168.6636
949.844	172.88198
950.018	191.86571
950.193	221.39921
950.367	255.15652
950.541	196.08454
950.715	301.58075
950.889	200.30345
951.063	212.96067
951.237	200.30345
951.411	174.9912
951.585	174.9912
951.759	303.69116
951.933	212.96067
952.107	261.48656
952.281	158.11802
952.455	160.22709
952.629	174.9912
952.803	219.28955
952.977	160.22709
953.151	265.70668
953.325	109.61514
953.499	174.9912
953.672	200.30345
953.846	240.38709
954.02	227.72833
954.194	174.9912
954.368	284.69817
954.541	267.81677
954.715	170.77278
954.889	250.93658
955.062	261.48656
955.236	265.70668
955.41	234.05762
955.583	280.47771
955.757	234.05762
955.93	236.16742
956.104	227.72833
956.278	208.74152
956.451	174.9912
956.625	202.41294
956.798	187.64696
956.972	170.77278
957.145	193.97512
957.319	234.05762
957.492	206.63197
957.665	234.05762
957.839	259.37653
958.012	284.69817
958.185	231.94784
958.359	223.5089
958.532	234.05762
958.705	217.1799
958.879	191.86571
959.052	208.74152
959.225	225.6186
959.398	223.5089
959.572	162.33619
959.745	234.05762
959.918	217.1799
960.091	265.70668
960.264	183.42829
960.438	172.88198
960.611	217.1799
960.784	164.4453
960.957	219.28955
961.13	242.49695
961.303	253.04654
961.476	234.05762
961.649	132.81075
961.822	259.37653
961.995	162.33619
962.168	183.42829
962.341	217.1799
962.514	196.08454
962.686	170.77278
962.859	219.28955
963.032	115.94096
963.205	202.41294
963.378	179.20971
963.551	219.28955
963.723	177.10045
963.896	248.82665
964.069	212.96067
964.242	202.41294
964.414	166.55444
964.587	238.27725
964.76	183.42829
964.932	244.60683
965.105	174.9912
965.278	255.15652
965.45	137.02842
965.623	166.55444
965.795	168.6636
965.968	229.83807
966.14	170.77278
966.313	240.38709
966.485	132.81075
966.658	253.04654
966.83	217.1799
967.003	183.42829
967.175	280.47771
967.348	168.6636
967.52	149.68192
967.692	168.6636
967.865	143.35507
968.037	183.42829
968.209	187.64696
968.382	132.81075
968.554	183.42829
968.726	156.00896
968.898	134.91958
969.071	212.96067
969.243	99.07256
969.415	149.68192
969.587	174.9912
969.759	134.91958
969.932	124.37568
970.104	204.52245
970.276	191.86571
970.448	122.26697
970.62	158.11802
970.792	168.6636
970.964	130.70195
971.136	174.9912
971.308	153.89993
971.48	202.41294
971.652	118.04961
971.824	191.86571
971.996	181.31899
972.168	162.33619
972.339	179.20971
972.511	174.9912
972.683	153.89993
972.855	198.19399
973.027	166.55444
973.199	109.61514
973.37	151.79091
973.542	139.13728
973.714	59.01582
973.886	101.18103
974.057	156.00896
974.229	54.79979
974.401	168.6636
974.572	75.88082
974.744	59.01582
974.915	191.86571
975.087	164.4453
975.259	177.10045
975.43	94.85568
975.602	196.08454
975.773	67.44814
975.945	107.50658
976.116	124.37568
976.288	115.94096
976.459	92.74727
976.63	179.20971
976.802	75.88082
976.973	132.81075
977.145	158.11802
977.316	126.48442
977.487	115.94096
977.659	107.50658
977.83	42.15228
978.001	111.72373
978.172	84.31387
978.344	107.50658
978.515	137.02842
978.686	134.91958
978.857	130.70195
979.028	149.68192
979.2	101.18103
979.371	115.94096
979.542	158.11802
979.713	48.47593
979.884	90.63889
980.055	107.50658
980.226	132.81075
980.397	132.81075
980.568	160.22709
980.739	44.26014
980.91	124.37568
981.081	69.55627
981.252	128.59318
981.423	151.79091
981.594	82.20557
981.765	107.50658
981.936	84.31387
982.106	73.77262
982.277	96.96411
982.448	56.90779
982.619	126.48442
982.79	54.79979
982.96	132.81075
983.131	118.04961
983.302	134.91958
983.472	118.04961
983.643	107.50658
983.814	103.28953
983.984	92.74727
984.155	71.66443
984.326	82.20557
984.496	115.94096
984.667	40.04444
984.837	86.42218
985.008	52.69182
985.178	65.34002
985.349	115.94096
985.519	99.07256
985.69	101.18103
985.86	44.26014
986.031	63.23193
986.201	23.18258
986.371	82.20557
986.542	120.15828
986.712	99.07256
986.882	48.47593
987.053	99.07256
987.223	59.01582
987.393	73.77262
987.563	61.12386
987.734	82.20557
987.904	35.82884
988.074	90.63889
988.244	10.53718
988.414	65.34002
988.585	99.07256
988.755	40.04444
988.925	59.01582
989.095	80.0973
989.265	6.32224
989.435	113.83233
989.605	50.58386
989.775	111.72373
989.945	124.37568
990.115	44.26014
990.285	118.04961
990.455	31.61332
990.625	-8.42931
990.795	27.39791
990.965	90.63889
991.134	90.63889
991.304	67.44814
991.474	103.28953
991.644	42.15228
991.814	52.69182
991.984	61.12386
992.153	73.77262
992.323	-4.2147
992.493	65.34002
992.662	35.82884
992.832	2.10739
993.002	40.04444
993.171	73.77262
993.341	54.79979
993.511	16.85977
993.68	-16.85823
993.85	128.59318
994.019	75.88082
994.189	8.4297
994.358	-6.32202
994.528	65.34002
994.697	59.01582
994.867	84.31387
995.036	10.53718
995.206	96.96411
995.375	52.69182
995.544	31.61332
995.714	-2.10736
995.883	84.31387
996.052	61.12386
996.222	42.15228
996.391	153.89993
996.56	29.5056
996.73	46.36803
996.899	92.74727
997.068	56.90779
997.237	71.66443
997.406	59.01582
997.576	126.48442
997.745	14.75222
997.914	94.85568
998.083	-31.6079
998.252	52.69182
998.421	111.72373
998.59	90.63889
998.759	65.34002
998.928	105.39804
999.097	99.07256
999.266	14.75222
999.435	-6.32202
999.604	27.39791
999.773	40.04444
999.942	115.94096
1000.111	82.20557
1000.28	61.12386
1000.448	48.47593
1000.617	42.15228
1000.786	107.50658
1000.955	105.39804
1001.124	14.75222
1001.292	48.47593
1001.461	14.75222
1001.63	65.34002
1001.798	-42.14263
1001.967	92.74727
1002.136	96.96411
1002.304	-12.64382
1002.473	65.34002
1002.642	69.55627
1002.81	52.69182
1002.979	31.61332
1003.147	90.63889
1003.316	99.07256
1003.484	-33.71489
1003.653	48.47593
1003.821	27.39791
1003.99	84.31387
1004.158	14.75222
1004.327	73.77262
1004.495	86.42218
1004.663	-14.75104
1004.832	35.82884
1005	40.04444
1005.168	2.10739
1005.337	75.88082
1005.505	14.75222
1005.673	46.36803
1005.842	23.18258
1006.01	-35.82187
1006.178	14.75222
1006.346	42.15228
1006.514	42.15228
1006.683	59.01582
1006.851	-6.32202
1007.019	0
1007.187	-10.53658
1007.355	86.42218
1007.523	-21.07254
1007.691	52.69182
1007.859	52.69182
1008.027	103.28953
1008.195	56.90779
1008.363	-29.50088
1008.531	2.10739
1008.699	69.55627
1008.867	-33.71489
1009.035	59.01582
1009.203	94.85568
1009.37	23.18258
1009.538	-6.32202
1009.706	14.75222
1009.874	23.18258
1010.042	67.44814
1010.209	0
1010.377	67.44814
1010.545	27.39791
1010.713	18.96735
1010.88	90.63889
1011.048	-35.82187
1011.216	-2.10736
1011.383	16.85977
1011.551	77.98905
1011.718	-2.10736
1011.886	56.90779
1012.054	94.85568
1012.221	-10.53658
1012.389	42.15228
1012.556	42.15228
1012.724	21.07496
1012.891	-2.10736
1013.058	-33.71489
1013.226	52.69182
1013.393	25.29023
1013.561	118.04961
1013.728	14.75222
1013.895	31.61332
1014.063	48.47593
1014.23	84.31387
1014.397	52.69182
1014.565	56.90779
1014.732	65.34002
1014.899	46.36803
1015.066	40.04444
1015.233	37.93663
1015.401	31.61332
1015.568	42.15228
1015.735	40.04444
1015.902	44.26014
1016.069	48.47593
1016.236	42.15228
1016.403	23.18258
1016.57	111.72373
1016.737	50.58386
1016.904	-16.85823
1017.071	42.15228
1017.238	90.63889
1017.405	65.34002
1017.572	90.63889
1017.739	90.63889
1017.906	48.47593
1018.073	-16.85823
1018.24	-2.10736
1018.407	77.98905
1018.573	56.90779
1018.74	8.4297
1018.907	8.4297
1019.074	67.44814
1019.241	-10.53658
1019.407	-2.10736
1019.574	69.55627
1019.741	2.10739
1019.907	27.39791
1020.074	48.47593
1020.241	-14.75104
1020.407	-27.39383
1020.574	31.61332
1020.74	71.66443
1020.907	50.58386
1021.073	82.20557
1021.24	42.15228
1021.406	16.85977
1021.573	52.69182
1021.739	31.61332
1021.906	-23.17966
1022.072	31.61332
1022.239	27.39791
1022.405	111.72373
1022.571	21.07496
1022.738	6.32224
1022.904	31.61332
1023.07	2.10739
1023.237	-27.39383
1023.403	14.75222
1023.569	-44.2495
1023.735	59.01582
1023.902	40.04444
1024.068	48.47593
1024.234	4.2148
1024.4	50.58386
1024.566	42.15228
1024.732	-27.39383
1024.898	69.55627
1025.065	-23.17966
1025.231	21.07496
1025.397	6.32224
1025.563	115.94096
1025.729	-25.28676
1025.895	103.28953
1026.061	50.58386
1026.227	77.98905
1026.392	63.23193
1026.558	54.79979
1026.724	59.01582
1026.89	-52.67674
1027.056	40.04444
1027.222	46.36803
1027.388	-52.67674
1027.553	35.82884
1027.719	42.15228
1027.885	27.39791
1028.051	14.75222
1028.216	-46.35635
1028.382	14.75222
1028.548	-4.2147
1028.713	50.58386
1028.879	-4.2147
1029.045	50.58386
1029.21	52.69182
1029.376	54.79979
1029.541	92.74727
1029.707	56.90779
1029.873	-6.32202
1030.038	23.18258
1030.204	84.31387
1030.369	65.34002
1030.534	59.01582
1030.7	59.01582
1030.865	35.82884
1031.031	27.39791
1031.196	-18.9654
1031.361	6.32224
1031.527	73.77262
1031.692	94.85568
1031.857	-35.82187
1032.023	33.72107
1032.188	23.18258
1032.353	21.07496
1032.518	42.15228
1032.684	67.44814
1032.849	33.72107
1033.014	0
1033.179	4.2148
1033.344	65.34002
1033.509	-6.32202
1033.674	10.53718
1033.839	44.26014
1034.004	-8.42931
1034.17	31.61332
1034.335	77.98905
1034.5	29.5056
1034.664	0
1034.829	77.98905
1034.994	12.64469
1035.159	67.44814
1035.324	25.29023
1035.489	0
1035.654	21.07496
1035.819	71.66443
1035.984	14.75222
1036.148	0
1036.313	61.12386
1036.478	63.23193
1036.643	27.39791
1036.807	27.39791
1036.972	18.96735
1037.137	-18.9654
1037.301	14.75222
1037.466	-23.17966
1037.631	23.18258
1037.795	44.26014
1037.96	-23.17966
1038.124	44.26014
1038.289	54.79979
1038.454	65.34002
1038.618	48.47593
1038.783	-80.06246
1038.947	44.26014
1039.111	33.72107
1039.276	99.07256
1039.44	27.39791
1039.605	6.32224
1039.769	8.4297
1039.933	25.29023
1040.098	0
1040.262	61.12386
1040.426	48.47593
1040.591	65.34002
1040.755	99.07256
1040.919	56.90779
1041.083	63.23193
1041.248	82.20557
1041.412	-27.39383
1041.576	56.90779
1041.74	-2.10736
1041.904	82.20557
1042.068	6.32224
1042.232	23.18258
1042.397	-35.82187
1042.561	61.12386
1042.725	-35.82187
1042.889	35.82884
1043.053	56.90779
1043.217	16.85977
1043.381	27.39791
1043.544	48.47593
1043.708	59.01582
1043.872	67.44814
1044.036	31.61332
1044.2	31.61332
1044.364	29.5056
1044.528	118.04961
1044.691	56.90779
1044.855	59.01582
1045.019	44.26014
1045.183	54.79979
1045.346	16.85977
1045.51	-33.71489
1045.674	67.44814
1045.837	2.10739
1046.001	23.18258
1046.165	67.44814
1046.328	21.07496
1046.492	94.85568
1046.655	4.2148
1046.819	44.26014
1046.983	35.82884
1047.146	40.04444
1047.31	86.42218
1047.473	50.58386
1047.636	63.23193
1047.8	12.64469
1047.963	10.53718
1048.127	31.61332
1048.29	63.23193
