Data from mixed_try1_USB4F045381__19__00084.txt Node

Date: Thu Apr 03 19:52:58 EDT 2025
User: mmckonesweet
Spectrometer: USB4F04538
Trigger mode: 4
Integration Time (sec): 2.700000E-3
Scans to average: 1
Electric dark correction enabled: true
Nonlinearity correction enabled: true
Boxcar width: 0
XAxis mode: Wavelengths
Number of Pixels in Spectrum: 3648
>>>>>Begin Spectral Data<<<<<
345.52	-71.98763
345.736	-71.98763
345.952	-71.98763
346.168	-23.53085
346.384	-65.66794
346.6	-2.45859
346.816	62.88058
347.032	8.07845
347.248	-17.20943
347.464	54.44846
347.68	-42.49378
347.896	12.29343
348.112	-25.63794
348.328	-80.41353
348.544	20.72369
348.76	-27.74501
348.975	37.58533
349.191	12.29343
349.407	-25.63794
349.623	-0.35123
349.839	-55.13461
350.055	48.12461
350.27	-71.98763
350.486	24.93896
350.702	3.86356
350.918	-29.85205
351.133	-23.53085
351.349	-10.88778
351.565	-23.53085
351.781	37.58533
351.996	-12.99502
352.212	56.55646
352.428	22.83131
352.644	12.29343
352.859	20.72369
353.075	-10.88778
353.291	-2.45859
353.506	-40.38689
353.722	-55.13461
353.938	-69.8811
354.153	54.44846
354.369	22.83131
354.584	3.86356
354.8	-29.85205
355.016	-4.56592
355.231	24.93896
355.447	29.15432
355.662	37.58533
355.878	16.50851
356.093	14.40096
356.309	-76.20064
356.524	48.12461
356.74	20.72369
356.955	-4.56592
357.171	1.75615
357.386	-19.31659
357.602	-101.47647
357.817	-57.24133
358.033	39.69314
358.248	-23.53085
358.464	-6.67324
358.679	16.50851
358.895	16.50851
359.11	31.26204
359.325	33.36978
359.541	48.12461
359.756	-10.88778
359.972	8.07845
360.187	-0.35123
360.402	37.58533
360.618	27.04663
360.833	24.93896
361.048	37.58533
361.264	-34.06606
361.479	5.97099
361.694	31.26204
361.909	16.50851
362.125	43.90883
362.34	-21.42373
362.555	-21.42373
362.77	-38.27997
362.986	3.86356
363.201	-53.02787
363.416	-17.20943
363.631	12.29343
363.847	-4.56592
364.062	1.75615
364.277	-61.45468
364.492	-10.88778
364.707	-29.85205
364.922	-19.31659
365.138	14.40096
365.353	-34.06606
365.568	20.72369
365.783	-4.56592
365.998	-40.38689
366.213	-12.99502
366.428	3.86356
366.643	35.47754
366.858	22.83131
367.073	-21.42373
367.288	22.83131
367.503	5.97099
367.718	8.07845
367.933	52.34049
368.148	37.58533
368.363	-10.88778
368.578	-8.78052
368.793	1.75615
369.008	12.29343
369.223	22.83131
369.438	64.98867
369.653	-27.74501
369.868	16.50851
370.083	-36.17303
370.298	37.58533
370.513	-8.78052
370.728	31.26204
370.943	73.42125
371.157	-36.17303
371.372	20.72369
371.587	1.75615
371.802	-2.45859
372.017	62.88058
372.232	3.86356
372.446	8.07845
372.661	41.80097
372.876	67.09678
373.091	-29.85205
373.306	-78.3071
373.52	22.83131
373.735	-12.99502
373.95	-78.3071
374.165	-97.26409
374.379	16.50851
374.594	3.86356
374.809	41.80097
375.023	-57.24133
375.238	-21.42373
375.453	-69.8811
375.667	56.55646
375.882	31.26204
376.097	-42.49378
376.311	-31.95906
376.526	-12.99502
376.741	-29.85205
376.955	-69.8811
377.17	-0.35123
377.384	-8.78052
377.599	-0.35123
377.813	29.15432
378.028	-46.70749
378.242	46.01671
378.457	-38.27997
378.672	31.26204
378.886	-12.99502
379.101	20.72369
379.315	-63.56133
379.53	8.07845
379.744	-17.20943
379.958	-38.27997
380.173	-12.99502
380.387	71.31307
380.602	-17.20943
380.816	-12.99502
381.031	52.34049
381.245	29.15432
381.459	37.58533
381.674	20.72369
381.888	-4.56592
382.103	-10.88778
382.317	-50.9211
382.531	-12.99502
382.746	-29.85205
382.96	-4.56592
383.174	64.98867
383.388	54.44846
383.603	29.15432
383.817	-2.45859
384.031	31.26204
384.246	3.86356
384.46	-2.45859
384.674	20.72369
384.888	-21.42373
385.103	12.29343
385.317	29.15432
385.531	20.72369
385.745	12.29343
385.959	20.72369
386.174	75.52945
386.388	-12.99502
386.602	43.90883
386.816	41.80097
387.03	-69.8811
387.244	-27.74501
387.458	75.52945
387.672	-57.24133
387.887	33.36978
388.101	5.97099
388.315	20.72369
388.529	20.72369
388.743	-6.67324
388.957	98.72115
389.171	-0.35123
389.385	5.97099
389.599	-46.70749
389.813	75.52945
390.027	20.72369
390.241	-34.06606
390.455	-40.38689
390.669	43.90883
390.883	-21.42373
391.097	46.01671
391.311	-15.10224
391.525	-17.20943
391.738	14.40096
391.952	-21.42373
392.166	-71.98763
392.38	81.85419
392.594	39.69314
392.808	43.90883
393.022	-38.27997
393.236	12.29343
393.449	-29.85205
393.663	46.01671
393.877	-4.56592
394.091	54.44846
394.305	8.07845
394.518	3.86356
394.732	-12.99502
394.946	48.12461
395.16	-10.88778
395.373	-27.74501
395.587	29.15432
395.801	39.69314
396.015	12.29343
396.228	-4.56592
396.442	41.80097
396.656	54.44846
396.869	46.01671
397.083	-2.45859
397.297	-2.45859
397.51	-0.35123
397.724	79.74592
397.938	71.31307
398.151	-12.99502
398.365	14.40096
398.578	20.72369
398.792	71.31307
399.005	-25.63794
399.219	-19.31659
399.433	-23.53085
399.646	20.72369
399.86	67.09678
400.073	-19.31659
400.287	-53.02787
400.5	8.07845
400.714	-36.17303
400.927	5.97099
401.141	-8.78052
401.354	-4.56592
401.567	-19.31659
401.781	-34.06606
401.994	-12.99502
402.208	69.20492
402.421	20.72369
402.635	-38.27997
402.848	12.29343
403.061	20.72369
403.275	-10.88778
403.488	50.23254
403.701	48.12461
403.915	3.86356
404.128	-12.99502
404.341	-0.35123
404.555	37.58533
404.768	22.83131
404.981	12.29343
405.195	-2.45859
405.408	35.47754
405.621	-27.74501
405.834	12.29343
406.048	3.86356
406.261	3.86356
406.474	29.15432
406.687	-25.63794
406.9	-4.56592
407.114	-71.98763
407.327	62.88058
407.54	29.15432
407.753	81.85419
407.966	16.50851
408.179	-0.35123
408.392	-12.99502
408.605	1.75615
408.819	14.40096
409.032	22.83131
409.245	-12.99502
409.458	62.88058
409.671	-46.70749
409.884	16.50851
410.097	-53.02787
410.31	-0.35123
410.523	-46.70749
410.736	73.42125
410.949	8.07845
411.162	-34.06606
411.375	71.31307
411.588	73.42125
411.801	24.93896
412.014	-15.10224
412.227	-2.45859
412.44	96.6127
412.653	-61.45468
412.865	-34.06606
413.078	22.83131
413.291	73.42125
413.504	-95.15786
413.717	88.17913
413.93	62.88058
414.143	-71.98763
414.356	14.40096
414.568	-59.34802
414.781	-29.85205
414.994	58.66448
415.207	-23.53085
415.42	-4.56592
415.632	67.09678
415.845	8.07845
416.058	-17.20943
416.271	-10.88778
416.483	-55.13461
416.696	-12.99502
416.909	29.15432
417.121	-8.78052
417.334	-8.78052
417.547	22.83131
417.759	71.31307
417.972	20.72369
418.185	-15.10224
418.397	-36.17303
418.61	50.23254
418.823	-25.63794
419.035	12.29343
419.248	14.40096
419.46	-12.99502
419.673	62.88058
419.885	-36.17303
420.098	12.29343
420.311	-19.31659
420.523	-17.20943
420.736	-40.38689
420.948	27.04663
421.161	33.36978
421.373	3.86356
421.586	39.69314
421.798	-12.99502
422.01	20.72369
422.223	-67.77453
422.435	-12.99502
422.648	14.40096
422.86	14.40096
423.073	-2.45859
423.285	-50.9211
423.497	-55.13461
423.71	24.93896
423.922	29.15432
424.134	-88.83902
424.347	8.07845
424.559	5.97099
424.771	18.61609
424.984	-12.99502
425.196	124.02423
425.408	96.6127
425.621	27.04663
425.833	8.07845
426.045	24.93896
426.257	33.36978
426.47	-21.42373
426.682	88.17913
426.894	20.72369
427.106	46.01671
427.318	48.12461
427.531	-38.27997
427.743	-12.99502
427.955	5.97099
428.167	-19.31659
428.379	-17.20943
428.591	64.98867
428.804	-8.78052
429.016	41.80097
429.228	-40.38689
429.44	-34.06606
429.652	22.83131
429.864	10.18593
430.076	37.58533
430.288	67.09678
430.5	16.50851
430.712	90.28749
430.924	-15.10224
431.136	41.80097
431.348	14.40096
431.56	29.15432
431.772	5.97099
431.984	8.07845
432.196	31.26204
432.408	52.34049
432.62	29.15432
432.832	88.17913
433.044	-4.56592
433.256	3.86356
433.468	5.97099
433.679	-2.45859
433.891	-76.20064
434.103	-59.34802
434.315	-17.20943
434.527	-21.42373
434.739	41.80097
434.95	62.88058
435.162	39.69314
435.374	81.85419
435.586	24.93896
435.798	48.12461
436.009	8.07845
436.221	60.77252
436.433	39.69314
436.645	58.66448
436.856	86.0708
437.068	-8.78052
437.28	-21.42373
437.491	-29.85205
437.703	-36.17303
437.915	-21.42373
438.126	-29.85205
438.338	27.04663
438.55	-2.45859
438.761	62.88058
438.973	-25.63794
439.184	35.47754
439.396	41.80097
439.608	12.29343
439.819	3.86356
440.031	90.28749
440.242	20.72369
440.454	29.15432
440.665	79.74592
440.877	46.01671
441.088	67.09678
441.3	75.52945
441.511	5.97099
441.723	10.18593
441.934	22.83131
442.146	12.29343
442.357	31.26204
442.569	46.01671
442.78	22.83131
442.991	39.69314
443.203	12.29343
443.414	24.93896
443.626	31.26204
443.837	-10.88778
444.048	5.97099
444.26	29.15432
444.471	20.72369
444.682	3.86356
444.894	31.26204
445.105	-10.88778
445.316	-17.20943
445.528	56.55646
445.739	-10.88778
445.95	-63.56133
446.161	37.58533
446.373	67.09678
446.584	-8.78052
446.795	50.23254
447.006	12.29343
447.217	71.31307
447.429	-10.88778
447.64	33.36978
447.851	37.58533
448.062	3.86356
448.273	54.44846
448.484	20.72369
448.695	-6.67324
448.907	5.97099
449.118	-69.8811
449.329	-12.99502
449.54	29.15432
449.751	73.42125
449.962	88.17913
450.173	50.23254
450.384	58.66448
450.595	79.74592
450.806	54.44846
451.017	-21.42373
451.228	22.83131
451.439	-36.17303
451.65	12.29343
451.861	43.90883
452.072	83.96248
452.283	73.42125
452.494	24.93896
452.705	58.66448
452.915	-0.35123
453.126	54.44846
453.337	-29.85205
453.548	-8.78052
453.759	64.98867
453.97	-17.20943
454.181	46.01671
454.391	52.34049
454.602	-10.88778
454.813	62.88058
455.024	-2.45859
455.235	100.82962
455.445	37.58533
455.656	16.50851
455.867	31.26204
456.078	75.52945
456.288	12.29343
456.499	37.58533
456.71	-10.88778
456.921	24.93896
457.131	-36.17303
457.342	86.0708
457.553	71.31307
457.763	3.86356
457.974	100.82962
458.184	14.40096
458.395	16.50851
458.606	-25.63794
458.816	-6.67324
459.027	31.26204
459.237	37.58533
459.448	-2.45859
459.659	18.61609
459.869	-40.38689
460.08	77.63768
460.29	43.90883
460.501	62.88058
460.711	130.35049
460.922	48.12461
461.132	71.31307
461.343	43.90883
461.553	54.44846
461.764	-23.53085
461.974	24.93896
462.184	46.01671
462.395	-61.45468
462.605	46.01671
462.816	81.85419
463.026	33.36978
463.236	-4.56592
463.447	-25.63794
463.657	20.72369
463.867	-12.99502
464.078	50.23254
464.288	14.40096
464.498	98.72115
464.709	107.15516
464.919	54.44846
465.129	-12.99502
465.339	-6.67324
465.55	35.47754
465.76	54.44846
465.97	54.44846
466.18	-0.35123
466.391	52.34049
466.601	71.31307
466.811	83.96248
467.021	-12.99502
467.231	109.26371
467.441	54.44846
467.651	24.93896
467.862	105.04662
468.072	46.01671
468.282	67.09678
468.492	43.90883
468.702	37.58533
468.912	48.12461
469.122	48.12461
469.332	73.42125
469.542	60.77252
469.752	54.44846
469.962	5.97099
470.172	46.01671
470.382	56.55646
470.592	105.04662
470.802	113.4809
471.012	-10.88778
471.222	130.35049
471.432	79.74592
471.642	46.01671
471.852	100.82962
472.062	-4.56592
472.272	83.96248
472.482	22.83131
472.691	189.40476
472.901	35.47754
473.111	130.35049
473.321	35.47754
473.531	105.04662
473.741	48.12461
473.95	143.00359
474.16	54.44846
474.37	115.58952
474.58	124.02423
474.79	98.72115
474.999	134.5681
475.209	185.18606
475.419	113.4809
475.628	159.87558
475.838	132.45929
476.048	178.85816
476.258	121.91552
476.467	113.4809
476.677	212.60907
476.886	149.33043
477.096	208.38993
477.306	180.96744
477.515	115.58952
477.725	195.73297
477.935	172.53045
478.144	147.22146
478.354	126.13296
478.563	164.09378
478.773	109.26371
478.982	229.48645
479.192	155.65745
479.401	208.38993
479.611	180.96744
479.82	204.17086
480.03	240.03545
480.239	172.53045
480.449	180.96744
480.658	299.11864
480.868	221.0476
481.077	250.58493
481.287	286.45672
481.496	223.15728
481.705	214.71868
481.915	237.92561
482.124	284.34646
482.333	377.21465
482.543	214.71868
482.752	316.00221
482.961	316.00221
483.171	417.32708
483.38	299.11864
483.589	379.32569
483.799	383.5478
484.008	343.44047
484.217	343.44047
484.426	337.1083
484.636	292.78759
484.845	423.66115
485.054	408.88187
485.263	394.10337
485.472	436.32974
485.682	493.34525
485.891	404.65936
486.1	461.6686
486.309	503.90488
486.518	391.99222
486.727	400.43691
486.936	480.67419
487.146	495.45715
487.355	510.24083
487.564	501.79293
487.773	586.28206
487.982	560.93302
488.191	560.93302
488.4	493.34525
488.609	687.69643
488.818	598.95729
489.027	653.88854
489.236	611.63298
489.445	689.80952
489.654	675.01812
489.863	738.41367
490.072	689.80952
490.281	763.77459
490.49	687.69643
490.698	753.20736
490.907	744.75376
491.116	687.69643
491.325	653.88854
491.534	776.4556
491.743	729.96036
491.952	892.71381
492.16	920.19678
492.369	907.51217
492.578	820.84188
492.787	947.68104
492.996	918.08266
493.204	1085.11906
493.413	956.13798
493.622	1074.54603
493.831	835.63822
494.039	962.48076
494.248	949.79526
494.457	1036.48424
494.665	1078.77523
494.874	1182.39643
495.083	1102.03617
495.291	1063.97313
495.5	1059.74401
495.709	1135.87131
495.917	1118.9536
496.126	1228.92332
496.335	1178.16679
496.543	1271.22178
496.752	1347.3613
496.96	1247.95749
497.169	1283.91152
497.377	1309.29123
497.586	1330.44121
497.794	1457.34346
498.003	1315.63621
498.211	1400.23711
498.42	1178.16679
498.628	1529.25502
498.837	1389.6619
499.045	1508.10463
499.254	1486.95417
499.462	1601.16545
499.671	1425.61768
499.879	1651.92449
500.087	1584.2455
500.296	1677.3035
500.504	1328.3262
500.713	1601.16545
500.921	1556.75038
501.129	1770.35605
501.338	1601.16545
501.546	1833.79675
501.754	1527.13999
501.962	1823.22358
502.171	1829.5675
502.379	1920.49217
502.587	1897.23328
502.795	1967.00788
503.004	1664.61404
503.212	1996.60726
503.42	1884.54634
503.628	1950.09341
503.837	1821.10893
504.045	2051.57414
504.253	1931.06417
504.461	1956.43638
504.669	1969.12216
504.877	2032.54766
505.085	2009.29232
505.294	2076.9419
505.502	2015.63477
505.71	2252.37152
505.918	2087.51149
506.126	2396.05123
506.334	1994.49306
506.542	2396.05123
506.75	2038.88988
506.958	2134.01546
507.166	2176.2885
507.374	2341.1202
507.582	2091.73927
507.79	2421.40167
507.998	2155.15239
508.206	2535.4593
508.414	2197.4238
508.622	2393.93863
508.83	2328.44285
509.037	2412.95169
509.245	2235.46516
509.453	2438.30112
509.661	2347.45874
509.869	2655.81674
510.077	2514.33998
510.285	2598.81023
510.492	2514.33998
510.7	2508.00397
510.908	2425.6266
511.116	2446.75059
511.324	2497.44371
511.531	2643.14941
511.739	2450.97525
511.947	2674.81689
512.155	2634.70427
512.362	2784.57493
512.57	2746.58581
512.778	2738.14319
512.985	2725.47887
513.193	2799.34729
513.401	2630.48163
513.608	2930.15822
513.816	2909.06341
514.024	2820.44949
514.231	2940.70508
514.439	2868.97927
514.646	2822.55963
514.854	2999.76062
515.061	2898.51545
515.269	3088.32153
515.477	2953.36083
515.684	2852.10019
515.892	2826.77988
516.099	3090.42979
516.307	3071.4549
516.514	3235.86075
516.722	2980.77976
516.929	3231.64646
517.136	3252.71725
517.344	3193.71484
517.551	3008.19616
517.759	3341.19608
517.966	3136.80745
518.173	3322.23887
518.381	3328.55809
518.588	3480.17214
518.796	3031.39264
519.003	3553.83979
519.21	3223.21768
519.418	3526.48014
519.625	3318.02597
519.832	3450.69884
520.039	3128.37573
520.247	3539.10805
520.454	3543.31721
520.661	3595.92545
520.868	3570.67495
521.076	3736.85747
521.283	3616.96548
521.49	3747.37133
521.697	3408.58805
521.904	3638.00364
522.112	3669.55732
522.319	3820.95472
522.526	3677.97091
522.733	3837.7704
522.94	3804.13778
523.147	3770.50012
523.354	3627.4848
523.561	3818.85267
523.768	3837.7704
523.975	3846.17776
524.183	3688.48747
524.39	4054.15741
524.597	3867.19478
524.804	4182.20608
525.011	4056.25719
525.218	3890.3112
525.425	4075.15432
525.632	4024.75827
525.838	3997.45546
526.045	4249.34782
526.252	4058.35696
526.459	4295.49509
526.666	4291.30031
526.873	4435.97015
527.08	4142.33042
527.287	4408.72143
527.494	4060.4567
527.701	4433.87423
527.907	4173.81184
528.114	4335.34118
528.321	4362.59981
528.528	4461.11953
528.735	4471.59751
528.941	4215.77967
529.148	4213.68148
529.355	4450.64101
529.562	4217.87784
529.768	4538.6435
529.975	4249.34782
530.182	4567.969
530.388	4415.00992
530.595	4459.02387
530.802	4450.64101
531.008	4919.53133
531.215	4844.25044
531.422	4898.62295
531.628	4685.22725
531.835	4860.98209
532.042	4614.04311
532.248	5019.85956
532.455	4854.70789
532.661	5138.9302
532.868	4992.69257
533.074	4988.51269
533.281	5080.44877
533.487	5170.25205
533.694	4819.15024
533.9	5218.2687
534.107	4988.51269
534.313	5362.24451
534.52	4925.80339
534.726	5028.21785
534.933	5097.15961
535.139	5322.61011
535.345	4980.15265
535.552	5214.09383
535.758	5128.48843
535.965	5203.65624
536.171	5074.18182
536.377	5495.68747
536.584	5437.31802
536.79	5360.1587
536.996	5395.61427
537.203	5510.27695
537.409	5255.83834
537.615	5531.11706
537.821	5174.4279
538.028	5587.3736
538.234	5449.82731
538.44	5618.61981
538.646	5370.58751
538.853	5543.62
539.059	5262.09922
539.265	5533.20094
539.471	5739.38853
539.677	5672.76733
539.883	5616.53689
540.09	5816.38918
540.296	5672.76733
540.502	5841.35542
540.708	5624.86841
540.914	5907.91545
541.12	5949.50321
541.326	5922.47224
541.532	5581.12372
541.738	5999.39607
541.944	5787.2576
542.15	6186.37352
542.356	5828.87272
542.562	6086.67592
542.768	5912.07465
542.974	6061.74305
543.18	6344.11755
543.386	6339.96812
543.592	6202.98452
543.798	6366.93773
544.004	6161.45419
544.21	6167.68434
544.415	6155.22383
544.621	6425.01274
544.827	6072.13216
545.033	6412.56963
545.239	6302.61906
545.445	6514.16385
545.651	6335.8186
545.856	6642.63192
546.062	6283.9417
546.268	6597.05664
546.474	6302.61906
546.679	6628.13191
546.885	6271.48907
547.091	6422.93895
547.297	6302.61906
547.502	6700.62071
547.708	6487.21572
547.914	6626.06038
548.119	6454.0434
548.325	6725.46753
548.531	6634.34634
548.736	6771.01147
548.942	6456.11684
549.147	6574.26481
549.353	6758.5915
549.559	6812.40546
549.764	6733.74907
549.97	6717.18562
550.175	6559.75947
550.381	6882.75431
550.586	6692.3377
550.792	6866.20401
550.997	6936.53279
551.203	6928.26018
551.408	6853.79032
551.614	7163.88874
551.819	6891.02892
552.025	7149.4287
552.23	7089.51117
552.435	7190.74022
552.641	7070.91226
552.846	7248.56147
553.052	7194.87089
553.257	7196.93619
553.462	7304.3013
553.668	7390.97592
553.873	7219.65302
554.078	7333.19713
554.283	7192.80557
554.489	7504.42038
554.694	7304.3013
554.899	7683.73616
555.105	7411.60707
555.31	7512.66833
555.515	7279.53002
555.72	7498.23419
555.925	7388.91269
556.131	7576.57834
556.336	7380.65954
556.541	7421.92182
556.746	7502.35834
556.951	7483.79898
557.156	7481.73672
557.361	7908.17081
557.567	7967.8413
557.772	7838.19024
557.977	7638.40717
558.182	7904.05497
558.387	7741.41281
558.592	7772.30424
558.797	7683.73616
559.002	7924.63336
559.207	7677.55554
559.412	7731.11462
559.617	7714.63642
559.822	7813.48549
560.027	7782.60034
560.232	7856.71683
560.437	7867.00866
560.642	7996.64157
560.847	7918.46006
561.051	8041.89109
561.256	7698.15687
561.461	8142.63895
561.666	7932.86414
561.871	8099.46721
562.076	8161.13842
562.281	8352.20572
562.485	8111.8029
562.69	8278.26437
562.895	8074.79367
563.1	8046.0042
563.305	8058.34303
563.509	8327.56141
563.714	8259.77507
563.919	8304.96833
564.123	8350.15213
564.328	8120.02629
564.533	8218.68201
564.737	8292.64384
564.942	8284.42712
565.147	8461.01805
565.351	8284.42712
565.556	8362.47335
565.761	8130.30507
565.965	8518.48206
566.17	8274.15577
566.374	8686.68445
566.579	8403.53904
566.784	8596.44517
566.988	8448.70239
567.193	8647.72191
567.397	8510.27383
567.602	8742.0408
567.806	8307.02235
568.011	8530.79384
568.215	8998.14804
568.42	8828.12418
568.624	8785.0865
568.828	8850.66454
569.033	8653.87433
569.237	9026.81474
569.442	8803.5322
569.646	8942.85251
569.85	8830.17339
570.055	9145.54053
570.259	8842.46829
570.463	9213.06565
570.668	8852.71355
570.872	8752.29051
571.076	8871.15388
571.281	9204.88177
571.485	8934.65949
571.689	8824.02569
571.893	8815.82851
572.098	9206.92777
572.302	9016.57703
572.506	9174.18981
572.71	8998.14804
572.914	9253.981
573.119	9010.43419
573.323	9151.67994
573.527	9055.47802
573.731	9393.04332
573.935	9061.61971
574.139	9213.06565
574.343	8989.95692
574.547	9472.76546
574.751	9301.02536
574.955	9227.38679
575.159	9525.89994
575.364	9374.6424
575.568	9188.5132
575.772	9292.84437
575.976	9071.85551
576.18	9350.10576
576.383	9393.04332
576.587	9321.47669
576.791	9366.46378
576.995	9509.55202
577.199	9407.35424
577.403	9532.03015
577.607	9815.90923
577.811	9579.02367
578.015	9770.99846
578.219	9783.24757
578.422	9509.55202
578.626	9803.66156
578.83	9554.50635
579.034	9681.15488
579.238	9442.10601
579.442	10085.22416
579.645	9713.8287
579.849	9997.5205
580.053	9795.49615
580.257	9822.03287
580.46	10077.06679
580.664	10160.66921
580.868	9768.95689
581.071	10205.51942
581.275	10003.64022
581.479	10093.3813
581.682	9883.26183
581.886	10030.1575
582.09	10068.90919
582.293	10234.05701
582.497	9926.11419
582.7	9944.47751
582.904	10474.48388
583.107	10166.78554
583.311	10077.06679
583.515	10168.82429
583.718	10158.63041
583.922	10179.01783
584.125	10297.23791
584.329	10431.70942
584.532	10179.01783
584.735	10364.48084
584.939	10142.31947
585.142	10307.42716
585.346	10072.98802
585.549	10531.5077
585.753	10411.33862
585.956	10366.51828
586.159	10289.08626
586.363	10745.26
586.566	10509.10667
586.769	10769.68031
586.973	10574.26906
587.176	10912.09845
587.379	10564.08828
587.582	10574.26906
587.786	10413.37576
587.989	10838.86195
588.192	10604.80951
588.395	10629.23986
588.599	10724.90843
588.802	10948.71114
589.005	10635.34717
589.208	11036.16009
589.411	10908.03015
589.615	10926.33716
589.818	11076.82706
590.021	10724.90843
590.224	10688.27257
590.427	11078.8603
590.63	10855.13802
590.833	11011.7578
591.036	10928.37121
591.239	11078.8603
591.442	10773.75019
591.645	11186.60634
591.848	11044.29383
592.051	10948.71114
592.254	11050.39403
592.457	10952.779
592.66	10936.50732
592.863	11255.71085
593.066	11050.39403
593.269	11371.53599
593.472	11160.18083
593.675	11377.63114
593.878	11363.40897
594.081	11450.76614
594.284	11363.40897
594.486	11546.22915
594.689	11381.69453
594.892	11339.02697
595.095	11479.20413
595.298	11359.3454
595.5	11446.70342
595.703	11702.58164
595.906	11261.80773
596.109	11556.38356
596.311	11438.57785
596.514	11637.61053
596.717	11714.7627
596.92	11728.97354
597.122	11603.09086
597.325	11664.00615
597.528	11475.14168
597.73	11771.6035
597.933	11631.51901
598.136	12025.2763
598.338	11521.85761
598.541	11802.05113
598.743	11771.6035
598.946	11558.41442
599.148	11641.67149
599.351	11712.73255
599.554	11996.87128
599.756	11911.64681
599.959	12059.76604
600.161	11834.52648
600.363	12033.39174
600.566	11903.52944
600.768	12122.65333
600.971	12203.78751
601.173	12434.95692
601.376	12368.04873
601.578	12031.36289
601.78	12317.35575
601.983	12183.50508
602.185	12443.06651
602.388	12110.48217
602.59	12290.99369
602.792	12159.16519
602.995	12155.10844
603.197	12069.90965
603.399	12262.60244
603.601	12211.90028
603.804	12224.06921
604.006	11960.34825
604.208	12341.68892
604.41	12339.66119
604.613	12495.77628
604.815	12248.40629
605.017	12305.18879
605.219	12169.30694
605.421	12574.83277
605.623	12220.01293
605.826	12349.79975
606.028	12465.36734
606.23	12449.14864
606.432	12402.5175
606.634	12716.70551
606.836	12226.09734
607.038	12822.0781
607.24	12621.45137
607.442	12647.79958
607.644	12473.47653
607.846	12751.15593
608.048	12747.10303
608.25	12657.93324
608.452	12518.07525
608.654	12738.99715
608.856	12394.40738
609.058	12897.04561
609.26	12599.15593
609.462	12672.1201
609.664	12430.90209
609.866	12582.94059
610.067	12542.40051
610.269	12781.55199
610.471	12801.81533
610.673	12558.61684
610.875	12597.12903
611.077	12528.21088
611.278	12668.06674
611.48	12872.73264
611.682	12781.55199
611.884	12911.22783
612.085	12775.47288
612.287	13061.13867
612.489	12836.26172
612.69	12718.73205
612.892	12978.08339
613.094	12880.83705
613.295	12238.26596
613.497	12710.62585
613.699	12647.79958
613.9	12720.75859
614.102	12759.26168
614.304	13038.85636
614.505	12775.47288
614.707	13030.75356
614.908	12664.01336
615.11	12830.18306
615.311	13010.4962
615.513	12641.71932
615.714	13002.39312
615.916	12722.78512
616.117	12668.06674
616.319	12678.2001
616.52	12455.2307
616.722	12937.56554
616.923	13079.36921
617.124	12909.20181
617.326	12779.52563
617.527	13344.68274
617.729	13111.77809
617.93	12996.31576
618.131	12710.62585
618.333	13437.82895
618.534	13071.26679
618.735	13348.73275
618.937	13018.59921
619.138	13296.08131
619.339	12892.9935
619.54	13184.6937
619.742	13044.93341
619.943	13168.49075
620.144	12858.54971
620.345	13318.35726
620.546	13046.95909
620.748	13593.72959
620.949	13344.68274
621.15	13541.09023
621.351	13399.35654
621.552	13431.75445
621.753	13204.94699
621.954	13601.82774
622.155	13077.34361
622.356	13561.33642
622.558	13484.39896
622.759	13427.70477
622.96	13044.93341
623.161	13466.17616
623.362	13265.70418
623.563	13620.04839
623.764	13338.60769
623.965	13646.36661
624.166	13423.65507
624.366	13452.00265
624.567	13294.05619
624.768	13241.40177
624.969	12935.5396
625.17	13569.43479
625.371	13504.64617
625.572	13277.85514
625.773	13340.63271
625.973	13460.10182
626.174	13298.10641
626.375	13267.72935
626.576	13512.74495
626.777	13739.48819
626.977	13393.28182
627.178	13735.43957
627.379	13174.56689
627.58	13656.48885
627.78	13753.65828
627.981	13532.99165
628.182	13771.87675
628.382	14000.6001
628.583	13597.77867
628.784	13437.82895
628.984	13609.92584
629.185	13790.09497
629.386	13601.82774
629.586	14000.6001
629.787	13666.61101
629.987	13530.967
630.188	13290.00596
630.388	13541.09023
630.589	13423.65507
630.79	13476.29998
630.99	13472.25046
631.191	13737.46388
631.391	13642.31769
631.591	13585.63138
631.792	13409.48099
631.992	14035.00692
632.193	13988.45635
632.393	13919.64004
632.594	13737.46388
632.794	13854.86895
632.994	13731.39093
633.195	14041.07864
633.395	13794.14343
633.595	13988.45635
633.796	13937.85642
633.996	13966.19258
634.196	13781.99801
634.397	13901.42345
634.597	13571.45938
634.797	13895.35121
634.997	13692.92825
635.198	13935.83238
635.398	13759.73113
635.598	14010.71983
635.798	13982.38444
635.998	14014.7677
636.199	13650.41552
636.399	13903.44753
636.599	14051.19812
636.799	14035.00692
636.999	13771.87675
637.199	13767.82822
637.399	13759.73113
637.599	13767.82822
637.799	13761.75541
637.999	14107.86616
638.199	14071.43691
638.399	13877.13433
638.599	14051.19812
638.799	14124.05671
638.999	14290.0022
639.199	14518.66388
639.399	14039.05473
639.599	14174.65128
639.799	13931.78431
639.999	14194.88874
640.199	14006.67195
640.399	14192.865
640.599	13751.63399
640.799	14607.69547
640.998	14229.29197
641.198	14287.97855
641.398	14389.15882
641.598	14532.82816
641.798	14459.98263
641.997	14229.29197
642.197	14180.72254
642.397	14091.67547
642.597	14079.53236
642.796	14136.19953
642.996	14318.33308
643.196	14674.46773
643.395	14178.69879
643.595	14368.9231
643.795	14296.07313
643.994	14508.5465
644.194	14316.30946
644.394	14555.08618
644.593	14383.08812
644.793	14466.05315
644.992	14575.32061
645.192	14431.65332
645.392	14613.76572
645.591	14609.71889
645.791	14516.64041
645.99	14791.82258
646.19	14518.66388
646.389	14662.3274
646.589	14502.47606
646.788	14492.35863
646.987	14399.27662
647.187	14846.45241
647.386	14362.85235
647.586	14915.2449
647.785	14583.41435
647.984	14751.35571
648.184	14674.46773
648.383	14868.70887
648.582	14348.68722
648.782	15034.61888
648.981	14664.35079
649.18	14650.18704
649.38	14791.82258
649.579	15255.15559
649.778	14943.57105
649.977	15036.64216
650.177	14771.58918
650.376	14986.06012
650.575	14451.88857
650.774	14763.4958
650.973	14710.88851
651.173	14753.37906
651.372	14787.77591
651.571	14704.8184
651.77	14856.56899
651.969	15147.92219
652.168	14700.77166
652.367	14755.40241
652.566	14967.85054
652.765	15467.60102
652.964	15471.64764
653.163	15568.76737
653.362	15198.50396
653.561	14779.68255
653.76	15060.92148
653.959	15010.33952
654.158	15194.45742
654.357	15178.27125
654.556	15056.87493
654.755	15064.96803
654.954	15160.06182
655.153	14848.47573
655.352	15315.85391
655.551	15050.8051
655.749	15358.34287
655.948	15380.59906
656.147	15271.34179
656.346	15368.45932
656.545	15265.27196
656.743	15079.13095
656.942	15125.66621
657.141	15200.52723
657.34	15210.64359
657.538	15419.04168
657.737	15083.1775
657.936	15451.41454
658.135	14890.96527
658.333	15303.71423
658.532	14834.31249
658.731	15105.4335
658.929	14846.45241
659.128	14979.99026
659.326	15259.20214
659.525	15289.55128
659.724	15182.31779
659.922	15520.20732
660.121	15002.24639
660.319	15066.9913
660.518	15093.29386
660.716	15342.15658
660.915	15617.32783
661.113	15461.53108
661.312	15520.20732
661.51	15289.55128
661.709	15443.32131
661.907	15552.58064
662.105	15245.03922
662.304	15864.18493
662.502	15417.01838
662.701	15756.94188
662.899	15287.528
663.097	15635.53812
663.296	15212.66686
663.494	15734.68427
663.692	15576.86075
663.891	15325.97032
664.089	15344.17987
664.287	15491.8808
664.485	15504.02072
664.684	15765.03559
664.882	15394.76211
665.08	15663.86537
665.278	15586.97749
665.476	15522.23065
665.675	15366.43603
665.873	15522.23065
666.071	15305.73751
666.269	15653.74848
666.467	15301.69095
666.665	15601.14096
666.863	15186.36433
667.061	15518.184
667.259	15346.20316
667.457	15589.00084
667.655	15319.90047
667.853	15497.95076
668.051	15172.20144
668.249	15269.31851
668.447	15342.15658
668.645	15257.17886
668.843	15253.13231
669.041	15319.90047
669.239	15014.38608
669.437	15330.01688
669.635	15495.92744
669.833	15520.20732
670.031	14868.70887
670.229	15429.15818
670.426	15483.78753
670.624	15408.92519
670.822	15069.01458
671.02	15671.9589
671.218	15390.71552
671.415	15414.99508
671.613	15131.73603
671.811	15558.65066
672.009	15722.54381
672.206	15562.69734
672.404	15384.64565
672.602	15637.56149
672.799	15457.48446
672.997	15635.53812
673.195	15473.67096
673.392	15734.68427
673.59	15485.81085
673.788	15220.75994
673.985	15364.41274
674.183	15457.48446
674.38	15414.99508
674.578	15546.51063
674.775	15305.73751
674.973	15259.20214
675.17	15317.87719
675.368	15249.08576
675.565	15204.57377
675.763	15629.46802
675.96	15491.8808
676.158	15471.64764
676.355	15166.13163
676.553	15597.09425
676.75	15190.41087
676.947	15641.60823
677.145	15279.43489
677.342	15471.64764
677.539	15386.66894
677.737	15384.64565
677.934	14988.08341
678.131	15158.03855
678.329	15228.85303
678.526	15325.97032
678.723	15570.79071
678.92	15833.8328
679.118	15651.7251
679.315	15534.37063
679.512	15756.94188
679.709	15408.92519
679.906	14890.96527
680.104	15477.71758
680.301	15550.55731
680.498	15317.87719
680.695	15234.92285
680.892	15526.27731
681.089	14886.91866
681.286	15378.57577
681.483	15004.26968
681.68	15149.94546
681.877	15168.1549
682.075	15291.57455
682.272	15317.87719
682.469	15617.32783
682.665	15309.78407
682.862	15431.18149
683.059	15145.89892
683.256	15317.87719
683.453	15164.10836
683.65	15236.94612
683.847	15137.80584
684.044	15330.01688
684.241	15058.8982
684.438	15247.06249
684.635	15176.24798
684.831	15372.5059
685.028	15160.06182
685.225	15222.78322
685.422	15004.26968
685.619	15202.5505
685.815	15020.45593
686.012	15081.15422
686.209	14949.64093
686.405	15366.43603
686.602	14917.2682
686.799	14880.84873
686.996	15200.52723
687.192	14963.80396
687.389	14716.95861
687.586	14791.82258
687.782	14994.15326
687.979	14953.68751
688.175	14860.61562
688.372	15164.10836
688.568	15022.47921
688.765	15325.97032
688.962	15350.24973
689.158	15216.7134
689.355	15087.22404
689.551	14961.78067
689.748	14522.71082
689.944	14621.85938
690.14	14793.84592
690.337	14808.00925
690.533	15356.31959
690.73	14901.08179
690.926	15052.82837
691.123	14921.3148
691.319	15180.29452
691.515	15046.75855
691.712	14779.68255
691.908	14935.47787
692.104	15002.24639
692.301	14973.9204
692.497	14666.37418
692.693	14743.2623
692.889	14646.14024
693.086	15014.38608
693.282	14718.98198
693.478	14911.1983
693.674	14718.98198
693.87	14781.70589
694.067	14763.4958
694.263	14848.47573
694.459	14975.94369
694.655	15069.01458
694.851	14801.93926
695.047	14933.45458
695.243	14755.40241
695.439	14856.56899
695.635	14678.5145
695.831	14631.97642
696.027	14607.69547
696.224	14830.26585
696.42	14753.37906
696.615	14761.47246
696.811	14858.59231
697.007	14633.99983
697.203	14718.98198
697.399	14528.78123
697.595	14864.66225
697.791	14840.38245
697.987	14625.9062
698.183	14795.86926
698.379	14544.96891
698.575	15149.94546
698.77	14961.78067
698.966	14797.89259
699.162	14706.84177
699.358	14820.14922
699.554	14642.09344
699.749	14765.51915
699.945	14589.48465
700.141	14476.17067
700.337	14587.46122
700.532	14664.35079
700.728	14682.56126
700.924	14571.27373
701.119	14379.04098
701.315	14415.46502
701.511	14409.39438
701.706	14585.43779
701.902	14524.73429
702.097	14565.20341
702.293	14447.84153
702.489	14565.20341
702.684	14290.0022
702.88	14682.56126
703.075	14609.71889
703.271	14658.28062
703.466	14609.71889
703.662	14834.31249
703.857	14530.80469
704.053	14712.91188
704.248	14395.2295
704.443	14688.6314
704.639	14753.37906
704.834	14860.61562
705.03	14589.48465
705.225	14476.17067
705.42	14474.14717
705.616	14858.59231
705.811	14688.6314
706.006	14520.68735
706.202	14712.91188
706.397	14544.96891
706.592	14818.1259
706.787	14890.96527
706.983	14528.78123
707.178	14992.12998
707.373	14433.67685
707.568	14524.73429
707.763	14330.47478
707.959	14488.31165
708.154	14342.61642
708.349	14462.00614
708.544	14385.11169
708.739	14342.61642
708.934	14453.91208
709.129	14510.56998
709.324	14168.58
709.519	14644.11684
709.714	14215.126
709.909	14267.74198
710.104	14075.48464
710.299	14233.33937
710.494	14328.45117
710.689	14850.49905
710.884	14249.5289
711.079	14443.79449
711.274	14439.74744
711.469	14546.99237
711.664	14397.25306
711.859	14346.66362
712.054	14221.19714
712.249	14192.865
712.443	14415.46502
712.638	14753.37906
712.833	14354.758
713.028	14698.74828
713.223	14079.53236
713.417	14283.93125
713.612	13968.21657
713.807	13994.52824
714.002	14336.54561
714.196	14241.43415
714.391	14158.46116
714.586	14290.0022
714.78	14144.29469
714.975	14273.81297
715.17	13945.95251
715.364	14348.68722
715.559	14190.84126
715.754	14245.48153
715.948	14225.24456
716.143	14316.30946
716.337	14237.38676
716.532	14132.15193
716.726	13992.50428
716.921	14245.48153
717.115	14117.98527
717.31	14306.19132
717.504	14178.69879
717.699	14037.03083
717.893	13988.45635
718.088	14290.0022
718.282	13990.48032
718.476	14152.38983
718.671	13711.14756
718.865	14105.84233
719.059	13945.95251
719.254	13917.61599
719.448	13717.2206
719.642	14128.10432
719.837	13794.14343
720.031	14022.86342
720.225	13705.07448
720.419	13966.19258
720.614	13759.73113
720.808	14097.747
721.002	13512.74495
721.196	13869.03786
721.39	13701.02575
721.585	14057.26978
721.779	13879.15844
721.973	13773.90101
722.167	13324.43244
722.361	13775.92526
722.555	13666.61101
722.749	13555.2626
722.943	13705.07448
723.137	13595.75413
723.331	13678.7575
723.525	13725.31795
723.719	13684.8307
723.913	13893.32712
724.107	13500.59676
724.301	13775.92526
724.495	13336.58267
724.689	13958.09658
724.883	13391.2569
725.077	13589.68049
725.271	13447.95304
725.465	13668.63544
725.659	13435.80412
725.853	13711.14756
726.046	13524.89302
726.24	13579.55769
726.434	13192.79507
726.628	13620.04839
726.822	13587.65594
727.015	13790.09497
727.209	13200.89637
727.403	13626.12187
727.596	13694.95263
727.79	13832.60323
727.984	13786.0465
728.177	14111.91381
728.371	13824.50651
728.565	13777.94952
728.758	13640.29322
728.952	13901.42345
729.146	13494.52262
729.339	13895.35121
729.533	13360.88269
729.726	13666.61101
729.92	13569.43479
730.113	13840.69989
730.307	13490.47317
730.5	13725.31795
730.694	13472.25046
730.887	13585.63138
731.081	13652.43997
731.274	13543.11486
731.468	13383.1572
731.661	13470.22569
731.854	13504.64617
732.048	13241.40177
732.241	13269.75452
732.435	13573.48396
732.628	13660.53773
732.821	13407.45611
733.014	13518.819
733.208	13366.95761
733.401	13421.63021
733.594	13431.75445
733.788	13334.55764
733.981	13925.71219
734.174	13719.24494
734.367	13585.63138
734.56	13541.09023
734.754	13559.31181
734.947	13447.95304
735.14	13273.80484
735.333	13366.95761
735.526	13429.72961
735.719	13156.33834
735.912	12939.59148
736.105	13069.24118
736.298	13233.30083
736.491	13148.23665
736.684	13312.28205
736.877	13184.6937
737.07	13294.05619
737.263	13085.44597
737.456	13377.08238
737.649	12998.34155
737.842	13130.00756
738.035	13219.12402
738.228	13004.4189
738.421	13206.97229
738.614	13371.00753
738.807	13231.27559
739	13255.57825
739.192	13362.90767
739.385	13456.05224
739.578	13449.97785
739.771	13443.90342
739.964	13557.28721
740.156	13597.77867
740.349	13105.70152
740.542	13312.28205
740.735	13186.71905
740.927	13093.54825
741.12	12834.2355
741.313	12872.73264
741.505	13067.21556
741.698	13204.94699
741.891	13016.57346
742.083	13105.70152
742.276	13221.14929
742.468	12807.89422
742.661	12834.2355
742.854	12888.94137
743.046	12789.65739
743.239	12884.88922
743.431	13239.37655
743.624	13198.87105
743.816	13034.80497
744.009	13196.84573
744.201	12947.6952
744.393	13067.21556
744.586	12917.30584
744.778	13014.54772
744.971	12953.77293
745.163	13294.05619
745.355	13087.47154
745.548	12826.13059
745.74	12870.70652
745.932	12994.28996
746.125	13022.65068
746.317	12978.08339
746.509	13018.59921
746.702	13142.16033
746.894	13152.28751
747.086	12963.90238
747.278	13028.72785
747.471	12844.36652
747.663	12852.47123
747.855	12720.75859
748.047	12605.23658
748.239	12915.27984
748.431	13034.80497
748.623	12886.9153
748.815	12824.10435
749.008	13105.70152
749.2	13180.64299
749.392	13279.88029
749.584	13223.17456
749.776	13034.80497
749.968	12876.78485
750.16	12974.0317
750.352	13020.62494
750.544	12998.34155
750.736	12963.90238
750.928	12777.49926
751.12	12783.57835
751.311	12692.38655
751.503	12811.94678
751.695	12787.63105
751.887	12580.91365
752.079	12897.04561
752.271	12503.88508
752.463	12653.87979
752.654	12363.99345
752.846	12801.81533
753.038	12860.57586
753.23	12708.59928
753.421	12664.01336
753.613	12290.99369
753.805	12355.88281
753.997	12710.62585
754.188	12672.1201
754.38	12578.8867
754.572	12781.55199
754.763	12811.94678
754.955	12779.52563
755.146	12530.23799
755.338	12576.85974
755.53	12629.55862
755.721	12637.66578
755.913	12653.87979
756.104	12319.38356
756.296	12477.53109
756.487	12272.74233
756.679	12635.639
756.87	12268.68639
757.062	12574.83277
757.253	12483.61288
757.445	12690.35993
757.636	12645.77283
757.827	12625.50501
758.019	12509.96662
758.21	12534.29219
758.401	12321.41135
758.593	12272.74233
758.784	12396.43492
758.975	12451.176
759.167	12248.40629
759.358	11978.61009
759.549	12104.39649
759.74	11962.37738
759.932	11923.82261
760.123	11797.99156
760.314	12088.16766
760.505	11826.40784
760.696	11956.28998
760.888	12187.56163
761.079	11781.75292
761.27	12011.07399
761.461	11735.06377
761.652	11964.4065
761.843	11637.61053
762.034	11797.99156
762.225	11950.2025
762.416	11907.58814
762.607	11795.96176
762.798	11816.25936
762.989	11487.32893
763.18	11688.36999
763.371	11836.55611
763.562	11927.88114
763.753	11686.33972
763.944	11996.87128
764.135	11749.274
764.326	12295.04947
764.517	11891.35315
764.708	12126.71033
764.899	11546.22915
765.089	11481.23534
765.28	11469.04792
765.471	11586.8454
765.662	11371.53599
765.853	11824.37816
766.043	11278.06563
766.234	11674.15791
766.425	11251.64621
766.615	11584.81468
766.806	11420.29476
766.997	11649.79331
767.187	11509.67133
767.378	11694.46075
767.569	11712.73255
767.759	11826.40784
767.95	11615.27458
768.141	11497.48471
768.331	11206.93244
768.522	11322.7715
768.712	11509.67133
768.903	11505.60916
769.093	11322.7715
769.284	11172.37744
769.474	11086.99312
769.665	11080.89352
769.855	11078.8603
770.046	11444.67204
770.236	11058.52746
770.426	11300.41918
770.617	11355.2818
770.807	11314.64353
770.998	11156.11521
771.188	11164.24641
771.378	10948.71114
771.569	11184.57367
771.759	10940.57531
771.949	11019.89207
772.139	11129.68764
772.33	10810.37703
772.52	10847.00008
772.71	11186.60634
772.9	10916.16671
773.09	10883.61936
773.281	10899.8934
773.471	11093.09263
773.661	11023.95914
773.851	10639.41865
774.041	10751.36524
774.231	11050.39403
774.421	10688.27257
774.611	10777.82003
774.802	10560.01589
774.992	10787.99442
775.182	10830.72364
775.372	10798.16851
775.562	10525.39848
775.752	10655.70407
775.942	10468.37359
776.131	10545.7621
776.321	10268.7062
776.511	10639.41865
776.701	10458.18952
776.891	10474.48388
777.081	10796.13372
777.271	10590.55765
777.461	10594.62967
777.651	10604.80951
777.84	10676.05975
778.03	10393.0038
778.22	10598.70164
778.41	10586.48557
778.599	10448.00512
778.789	10621.09661
778.979	10321.69156
779.169	10415.41289
779.358	10158.63041
779.548	10372.63052
779.738	10256.47752
779.927	10113.77319
780.117	10148.43618
780.307	10315.57833
780.496	10376.70528
780.686	10234.05701
780.875	10085.22416
781.065	10303.3515
781.254	10056.67237
781.444	10376.70528
781.633	10101.53823
781.823	10352.25593
782.012	10295.20001
782.202	10386.89195
782.391	10030.1575
782.581	9928.15462
782.77	9956.71907
782.96	9801.62023
783.149	9660.73175
783.338	9797.53752
783.528	9868.97627
783.717	9905.70911
783.906	9866.93541
784.096	9975.08043
784.285	10017.91905
784.474	9881.22108
784.663	9844.48504
784.853	9852.64902
785.042	9505.46488
785.231	9922.03329
785.42	9587.1956
785.61	9707.70265
785.799	9864.89454
785.988	9775.08156
786.177	9348.06093
786.366	9642.3496
786.555	9343.97123
786.744	9382.82075
786.933	9262.16326
787.122	9466.63386
787.312	9593.32439
787.501	9294.88964
787.69	9120.98134
787.879	9456.41421
788.068	9206.92777
788.257	9075.94971
788.445	9051.38348
788.634	9395.08779
788.823	9350.10576
789.012	9750.58205
789.201	9489.11568
789.39	9346.01609
789.579	9061.61971
789.768	9444.15009
789.957	9466.63386
790.145	9264.20879
790.334	9499.33405
790.523	9448.23819
790.712	9239.66139
790.9	9296.9349
791.089	9223.29512
791.278	9268.29978
791.467	9292.84437
791.655	9440.06192
791.844	9200.78973
792.033	9245.79847
792.221	9045.24153
792.41	9032.95716
792.599	8981.76552
792.787	9110.74761
792.976	9213.06565
793.164	9082.09088
793.353	9211.01971
793.541	9090.27886
793.73	9098.46657
793.918	9196.69762
794.107	8785.0865
794.295	8912.1272
794.484	9092.32581
794.672	9251.93539
794.861	8989.95692
795.049	9088.23189
795.238	8867.05616
795.426	9037.05202
795.614	8858.86049
795.803	8965.38187
795.991	8666.17868
796.179	8723.59017
796.368	8698.98702
796.556	8748.19068
796.744	8555.41535
796.932	8756.39026
797.121	8500.01311
797.309	8645.67106
797.497	8633.3656
797.685	8805.58163
797.874	8571.82818
798.062	8713.33918
798.25	8524.63803
798.438	8674.38121
798.626	8649.77273
798.814	8680.53291
799.002	8419.96315
799.19	8698.98702
799.378	8539.00131
799.566	8399.43282
799.755	8159.083
799.943	8514.37798
800.131	8374.79387
800.318	8549.26023
800.506	8276.21008
800.694	8686.68445
800.882	8424.06899
801.07	8580.03414
801.258	8489.75192
801.446	8584.13701
801.634	8296.75208
801.822	8461.01805
802.01	8325.50759
802.197	8701.03738
802.385	8633.3656
802.573	8623.11053
802.761	8461.01805
802.949	8610.80383
803.136	8307.02235
803.324	8830.17339
803.512	8415.85724
803.699	8893.69009
803.887	8709.23866
804.075	8895.73873
804.262	8536.94947
804.45	8682.58344
804.638	8532.84573
804.825	8573.8797
805.013	8448.70239
805.201	8653.87433
805.388	8514.37798
805.576	8606.70145
805.763	8356.31283
805.951	8694.88624
806.138	8526.68999
806.326	8469.22811
806.513	8335.77649
806.701	8317.29212
806.888	8179.63627
807.075	8520.53407
807.263	8580.03414
807.45	8623.11053
807.638	8434.33324
807.825	8770.73883
808.012	8432.28043
808.2	8715.38942
808.387	8676.4318
808.574	8672.33061
808.761	8428.17474
808.949	8592.34253
809.136	8541.05313
809.323	8713.33918
809.51	8561.5703
809.698	8557.46702
809.885	8469.22811
810.072	8819.92714
810.259	8606.70145
810.446	8729.74055
810.633	8508.22172
810.82	8795.33429
811.008	8467.17562
811.195	8571.82818
811.382	8598.49646
811.569	8809.68044
811.756	8580.03414
811.943	8756.39026
812.13	8549.26023
812.317	8567.72509
812.504	8417.9102
812.691	8598.49646
812.878	8602.599
813.064	8651.82354
813.251	8483.59498
813.438	8662.07731
813.625	8267.99273
813.812	8483.59498
813.999	8409.69823
814.186	8641.56931
814.372	8415.85724
814.559	8776.88794
814.746	8436.38603
814.933	8495.90869
815.12	8580.03414
815.306	8417.9102
815.493	8483.59498
815.68	8606.70145
815.866	8411.75125
816.053	8737.94079
816.24	8325.50759
816.426	8543.10493
816.613	8551.31195
816.799	8850.66454
816.986	8493.85646
817.173	8996.10028
817.359	8442.54429
817.546	8536.94947
817.732	8101.52321
817.919	8727.69044
818.105	8288.53552
818.292	8302.9143
818.478	8204.29757
818.665	8419.96315
818.851	8196.07746
819.037	8397.37968
819.224	8413.80425
819.41	8352.20572
819.597	8294.69797
819.783	8483.59498
819.969	8520.53407
820.156	8368.6337
820.342	8580.03414
820.528	8547.20848
820.714	8374.79387
820.901	8485.64731
821.087	8461.01805
821.273	8684.63395
821.459	8329.61521
821.646	8826.07494
821.832	8610.80383
822.018	8469.22811
822.204	8489.75192
822.39	8532.84573
822.576	8378.90055
822.762	8508.22172
822.948	8366.58027
823.134	8555.41535
823.32	8008.98333
823.507	8296.75208
823.693	8218.68201
823.879	8465.12312
824.065	8292.64384
824.25	8259.77507
824.436	8041.89109
824.622	8146.75008
824.808	8335.77649
824.994	8048.06072
825.18	8041.89109
825.366	8048.06072
825.552	7924.63336
825.738	8041.89109
825.923	7945.20969
826.109	8191.96728
826.295	7821.72074
826.481	8157.02757
826.667	7955.49709
826.852	8078.90613
827.038	7617.79969
827.224	8008.98333
827.409	7799.073
827.595	7852.59996
827.781	7710.51666
827.966	7852.59996
828.152	7619.86054
828.338	7617.79969
828.523	7440.48702
828.709	7823.7795
828.894	7510.60638
829.08	7597.19008
829.266	7562.14885
829.451	7971.95587
829.637	7646.64957
829.822	7712.57655
830.008	7401.29177
830.193	7766.12633
830.378	7430.17324
830.564	7784.65949
830.749	7597.19008
830.935	7811.42663
831.12	7677.55554
831.305	7891.70694
831.491	7452.86284
831.676	7527.10143
831.861	7271.27223
832.047	7494.10995
832.232	7494.10995
832.417	7426.04757
832.602	7555.96446
832.788	7477.61214
832.973	7362.08867
833.158	7593.0679
833.343	7426.04757
833.528	7553.90295
833.714	7372.40603
833.899	7533.28672
834.084	7209.32752
834.269	7438.4243
834.454	7093.64402
834.639	7411.60707
834.824	7083.31173
835.009	7192.80557
835.194	7310.49363
835.379	7298.10878
835.564	7221.71805
835.749	7331.13328
835.934	7494.10995
836.119	7737.2936
836.304	7141.16532
836.489	7395.10233
836.674	7010.97008
836.859	7304.3013
837.044	7209.32752
837.228	7535.34844
837.413	7093.64402
837.598	7324.94162
837.783	7213.45778
837.968	7306.36543
838.152	7089.51117
838.337	7221.71805
838.522	7019.23909
838.707	6917.9189
838.891	7046.11089
839.076	7254.75558
839.261	6762.73158
839.445	6808.26647
839.63	6592.91288
839.815	6965.4841
839.999	6859.99727
840.184	7008.90278
840.368	6880.68561
840.553	7196.93619
840.737	6696.47925
840.922	6928.26018
841.106	6636.41777
841.291	6559.75947
841.475	6692.3377
841.66	6816.54435
841.844	6447.82293
842.029	6669.55753
842.213	6375.23528
842.397	6510.01824
842.582	6555.61487
842.766	6601.20031
842.951	6148.99326
843.135	6458.19026
843.319	6346.19222
843.504	6480.99636
843.688	6617.77406
843.872	6810.33598
844.056	6646.77458
844.241	6762.73158
844.425	6522.4548
844.609	6717.18562
844.793	6578.40899
844.977	6617.77406
845.161	6310.91951
845.346	6518.30937
845.53	6410.4957
845.714	6640.56056
845.898	6327.51927
846.082	6551.47019
846.266	6400.12569
846.45	6586.69707
846.634	6437.45501
846.818	6551.47019
847.002	6427.08651
847.186	6547.32541
847.37	6551.47019
847.554	6669.55753
847.738	6277.71549
847.922	6634.34634
848.106	6522.4548
848.29	6576.33691
848.473	6335.8186
848.657	6279.79091
848.841	6086.67592
849.025	5995.23885
849.209	5903.75616
849.392	6132.37737
849.576	5889.19789
849.76	6229.97421
849.944	5870.47841
850.127	6130.30028
850.311	5937.02787
850.495	5914.15422
850.678	5837.19462
850.862	6057.58725
851.046	5897.51704
851.229	5870.47841
851.413	5741.47006
851.596	6194.67921
851.78	5857.99769
851.964	6034.72863
852.147	5812.22781
852.331	5943.26565
852.514	5835.11418
852.698	5743.55156
852.881	5462.33576
853.065	5695.67109
853.248	5662.35558
853.431	5654.02576
853.615	5297.57351
853.798	5520.6973
853.982	5485.26571
854.165	5470.67425
854.348	5224.53084
854.532	5679.01409
854.715	5397.69968
854.898	5479.01236
855.081	5308.00584
855.265	5581.12372
855.448	5260.01228
855.631	5747.71449
855.814	5549.87115
855.997	5589.45684
856.181	5374.75887
856.364	5585.29033
856.547	5497.77175
856.73	5576.95702
856.913	5428.97802
857.096	5737.30699
857.279	5337.21324
857.462	5453.99689
857.645	5339.29931
857.828	5537.36864
858.011	5420.63765
858.194	5472.75881
858.377	5397.69968
858.56	5437.31802
858.743	5214.09383
858.926	5184.86712
859.109	4840.0673
859.292	5157.72394
859.475	4944.61836
859.658	5328.86874
859.841	5126.4
860.023	4994.78248
860.206	4980.15265
860.389	4827.51734
860.572	4896.53198
860.755	5003.14187
860.937	4735.45924
861.12	4927.89404
861.303	4771.03235
861.486	4869.34737
861.668	4651.73206
861.851	4856.79932
862.034	4611.94906
862.216	4923.71273
862.399	4578.44133
862.581	4647.54476
862.764	4685.22725
862.947	4877.71228
863.129	4743.82997
863.312	4762.66279
863.494	4601.47851
863.677	4664.29343
863.859	4465.31079
864.042	4649.63842
864.224	4459.02387
864.406	4783.586
864.589	4415.00992
864.771	4670.57382
864.954	4435.97015
865.136	4678.94734
865.318	4513.50391
865.501	4553.30679
865.683	4440.16193
865.865	4653.82568
866.048	4341.63196
866.23	4584.72447
866.412	4209.48503
866.594	4450.64101
866.777	4259.83674
866.959	4634.98231
867.141	4209.48503
867.323	4492.55181
867.505	4245.1521
867.687	4173.81184
867.869	4217.87784
868.052	4266.12984
868.234	4110.84429
868.416	4243.0542
868.598	4215.77967
868.78	4326.95318
868.962	4329.05021
869.144	4318.56483
869.326	4119.24105
869.508	4314.37053
869.69	4138.13254
869.872	4261.93446
870.054	4207.38678
870.236	4366.79312
870.417	4190.59999
870.599	4366.79312
870.781	4289.20289
870.963	4452.73676
871.145	4291.30031
871.327	4291.30031
871.508	4297.59245
871.69	4400.33646
871.872	4140.23149
872.054	4203.19021
872.235	3980.65201
872.417	4142.33042
872.599	4001.65612
872.78	4182.20608
872.962	4089.85091
873.144	4016.35778
873.325	4190.59999
873.507	4274.52034
873.689	4089.85091
873.87	4375.17948
874.052	4186.40308
874.233	4150.72593
874.415	4068.85546
874.596	4324.85613
874.778	3877.70255
874.959	4043.65818
875.141	4091.95034
875.322	4169.61459
875.503	4024.75827
875.685	4169.61459
875.866	3871.39795
876.048	4075.15432
876.229	3795.72883
876.41	3976.45094
876.592	3869.29638
876.773	4121.34019
876.954	3654.8328
877.136	3957.54514
877.317	3736.85747
877.498	3829.36272
877.679	3905.02039
877.86	3879.80404
878.042	3661.14342
878.223	4190.59999
878.404	3900.81786
878.585	3938.63768
878.766	3938.63768
878.947	4077.25389
879.128	3820.95472
879.309	3928.13283
879.49	3816.7506
879.672	3947.0412
879.853	3745.2686
880.034	3947.0412
880.215	3913.4252
880.396	3923.93075
880.576	3728.44603
880.757	4037.3584
880.938	3707.41607
881.119	4110.84429
881.3	3825.15876
881.481	4169.61459
881.662	4043.65818
881.843	4138.13254
882.023	3896.61526
882.204	4115.04271
882.385	3930.23384
882.566	4081.45298
882.747	4075.15432
882.927	4232.56442
883.108	4091.95034
883.289	4035.25843
883.469	4037.3584
883.65	4198.99355
883.831	3894.51393
884.011	4345.8257
884.192	3848.27956
884.373	4234.66242
884.553	3871.39795
884.734	4133.93458
884.914	4091.95034
885.095	4285.00798
885.275	3753.67942
885.456	4595.19591
885.636	4062.55642
885.817	4255.64124
885.997	4180.10755
886.178	4165.41726
886.358	4089.85091
886.538	4345.8257
886.719	4049.95778
886.899	4446.44944
887.08	4178.009
887.26	4354.21293
887.44	4003.75642
887.621	4404.52899
887.801	4129.73653
887.981	4232.56442
888.161	4232.56442
888.342	4182.20608
888.522	4024.75827
888.702	4257.739
888.882	3871.39795
889.062	4366.79312
889.242	4003.75642
889.423	4121.34019
889.603	4108.74504
889.783	4440.16193
889.963	3955.44439
890.143	4224.17222
890.323	4041.55827
890.503	4215.77967
890.683	4089.85091
890.863	4274.52034
891.043	3923.93075
891.223	3989.0539
891.403	4018.45793
891.583	4064.65612
891.763	3753.67942
891.943	4081.45298
892.122	3825.15876
892.302	4100.34786
892.482	3917.62748
892.662	4131.83557
892.842	4127.63748
893.022	4012.15741
893.201	3997.45546
893.381	4102.44719
893.561	3856.68652
893.741	4098.24851
893.92	3768.3976
894.1	3862.99154
894.28	3688.48747
894.459	3833.5666
894.639	3652.72922
894.819	3959.64586
894.998	3745.2686
895.178	3886.1084
895.357	3644.31471
895.537	3959.64586
895.716	3963.84726
895.896	3972.2498
896.075	3526.48014
896.255	3635.89991
896.434	3473.85673
896.614	3890.3112
896.793	3501.22232
896.973	3602.23766
897.152	3627.4848
897.331	3799.93335
897.511	3766.29506
897.69	3810.44428
897.87	3478.06702
898.049	3642.21104
898.228	3366.47017
898.407	3574.88355
898.587	3553.83979
898.766	3690.59073
898.945	3435.96088
899.124	3619.06938
899.304	3372.7883
899.483	3534.89882
899.662	3235.86075
899.841	3475.96188
900.02	3037.71863
900.199	3381.21222
900.378	3248.50323
900.557	3195.8223
900.737	3200.03715
900.916	3307.49341
901.095	2970.23432
901.274	3170.53178
901.453	3020.84902
901.632	3164.20879
901.811	3109.4034
901.989	3221.11044
902.168	2904.84427
902.347	3020.84902
902.526	2767.69141
902.705	3168.42413
902.884	2807.78833
903.063	2961.79769
903.242	2928.04881
903.42	3273.78636
903.599	2906.95385
903.778	3039.82727
903.957	2691.70505
904.135	2864.75958
904.314	2744.47517
904.493	2982.88881
904.672	2816.22916
904.85	2812.00877
905.029	2636.81558
905.207	2771.91237
905.386	2461.53674
905.565	2660.03909
905.743	2592.47562
905.922	2793.01636
906.1	2527.01171
906.279	2472.09794
906.457	2332.66867
906.636	2457.31218
906.814	2286.1825
906.993	2347.45874
907.171	2277.72998
907.35	2415.0642
907.528	2150.92507
907.707	2370.6993
907.885	2106.53629
908.063	2265.05092
908.242	2000.83564
908.42	2328.44285
908.598	2017.7489
908.777	2265.05092
908.955	2072.71401
909.133	2246.03171
909.311	1846.48442
909.49	2165.72055
909.668	1924.72099
909.846	2026.20538
910.024	1992.37885
910.202	2017.7489
910.38	1797.84749
910.559	2193.1968
910.737	1981.80772
910.915	2093.85316
911.093	2108.65012
911.271	2184.74272
911.449	2205.87767
911.627	2269.27731
911.805	1962.7793
911.983	2009.29232
912.161	2091.73927
912.339	2286.1825
912.517	2068.48609
912.695	2370.6993
912.872	2146.69771
913.05	2315.76515
913.228	2146.69771
913.406	2271.39049
913.584	2161.49331
913.762	2258.71126
913.939	2220.67163
914.117	2267.16412
914.295	2123.4467
914.473	2229.12513
914.65	2049.46012
914.828	2193.1968
915.006	2070.60006
915.184	2112.87775
915.361	2034.66174
915.539	2169.94776
915.716	1947.97907
915.894	2157.26603
916.072	2060.03017
916.249	2218.55824
916.427	1939.52167
916.604	2074.82796
916.782	2083.28367
916.959	2252.37152
917.137	1884.54634
917.314	2049.46012
917.492	1969.12216
917.669	2125.56047
917.847	1869.74468
918.024	1992.37885
918.201	1838.02599
918.379	2142.47033
918.556	1780.92976
918.733	2021.97715
918.911	2011.40648
919.088	2007.17816
919.265	1770.35605
919.442	2000.83564
919.62	1635.00495
919.797	1882.43183
919.974	1772.4708
920.151	1850.7136
920.328	1736.51952
920.506	1956.43638
920.683	1795.73279
920.86	1761.89701
921.037	1569.44047
921.214	1785.15922
921.391	1525.02495
921.568	1719.60092
921.745	1584.2455
921.922	1730.17507
922.099	1567.32546
922.276	1766.12654
922.453	1596.93547
922.63	1569.44047
922.807	1486.95417
922.984	1613.85532
923.161	1434.07789
923.338	1664.61404
923.514	1440.42304
923.691	1689.99285
923.868	1533.48509
924.045	1643.46474
924.222	1423.50263
924.399	1501.7595
924.575	1362.16646
924.752	1450.9983
924.929	1372.74161
925.105	1474.26387
925.282	1131.64186
925.459	1313.52121
925.635	1402.35216
925.812	1539.83018
925.989	1254.30227
926.165	1497.52941
926.342	1385.43182
926.518	1480.60903
926.695	1298.71631
926.871	1368.51155
927.048	1180.28161
927.224	1360.05143
927.401	1068.20228
927.577	1167.59277
927.754	1015.3396
927.93	1180.28161
928.107	1121.0683
928.283	1118.9536
928.459	1161.24841
928.636	1093.57758
928.812	973.05219
928.988	1146.44503
929.165	992.08121
929.341	1036.48424
929.517	1030.14078
929.693	1093.57758
929.87	861.00439
930.046	992.08121
930.222	1047.05678
930.398	1114.72421
930.574	1002.65311
930.751	1099.92152
930.927	958.25223
931.103	924.42505
931.279	966.70931
931.455	1042.82774
931.631	632.76015
931.807	966.70931
931.983	772.22855
932.159	905.3981
932.335	702.4883
932.511	778.56913
932.687	609.52034
932.863	890.59979
933.039	713.05426
933.215	937.11002
933.391	683.47028
933.566	810.27334
933.742	759.54766
933.918	780.68268
934.094	624.30913
934.27	717.28072
934.445	630.64738
934.621	746.86714
934.797	588.39456
934.973	603.18247
935.148	484.89782
935.324	552.48376
935.5	577.83217
935.675	565.15772
935.851	410.99314
936.027	408.88187
936.202	332.88694
936.378	446.88733
936.553	341.32972
936.729	387.76998
936.904	334.99761
937.08	377.21465
937.255	273.79547
937.431	343.44047
937.606	326.55503
937.782	375.10364
937.957	259.02486
938.133	273.79547
938.308	199.95188
938.483	216.8283
938.659	210.49949
938.834	229.48645
939.009	115.58952
939.185	166.20292
939.36	164.09378
939.535	159.87558
939.71	151.43941
939.886	231.59621
940.061	250.58493
940.236	210.49949
940.411	88.17913
940.586	210.49949
940.761	155.65745
940.937	90.28749
941.112	121.91552
941.287	58.66448
941.462	185.18606
941.637	204.17086
941.812	178.85816
941.987	109.26371
942.162	214.71868
942.337	126.13296
942.512	130.35049
942.687	126.13296
942.862	191.51415
943.037	96.6127
943.212	62.88058
943.386	75.52945
943.561	121.91552
943.736	121.91552
943.911	46.01671
944.086	73.42125
944.26	73.42125
944.435	105.04662
944.61	180.96744
944.785	105.04662
944.959	140.89469
945.134	149.33043
945.309	206.28038
945.483	113.4809
945.658	128.24171
945.833	136.67694
946.007	180.96744
946.182	111.37229
946.357	121.91552
946.531	92.39587
946.706	113.4809
946.88	128.24171
947.055	113.4809
947.229	86.0708
947.404	115.58952
947.578	138.7858
947.752	149.33043
947.927	31.26204
948.101	58.66448
948.276	121.91552
948.45	140.89469
948.624	126.13296
948.799	164.09378
948.973	50.23254
949.147	52.34049
949.321	67.09678
949.496	134.5681
949.67	121.91552
949.844	140.89469
950.018	81.85419
950.193	48.12461
950.367	185.18606
950.541	100.82962
950.715	168.31207
950.889	176.7489
951.063	73.42125
951.237	102.93811
951.411	132.45929
951.585	121.91552
951.759	100.82962
951.933	111.37229
952.107	64.98867
952.281	37.58533
952.455	164.09378
952.629	117.69816
952.803	113.4809
952.977	105.04662
953.151	109.26371
953.325	155.65745
953.499	132.45929
953.672	180.96744
953.846	90.28749
954.02	130.35049
954.194	130.35049
954.368	100.82962
954.541	151.43941
954.715	140.89469
954.889	176.7489
955.062	90.28749
955.236	151.43941
955.41	96.6127
955.583	79.74592
955.757	113.4809
955.93	138.7858
956.104	86.0708
956.278	130.35049
956.451	88.17913
956.625	159.87558
956.798	159.87558
956.972	143.00359
957.145	14.40096
957.319	189.40476
957.492	138.7858
957.665	242.1453
957.839	46.01671
958.012	119.80683
958.185	132.45929
958.359	98.72115
958.532	67.09678
958.705	147.22146
958.879	113.4809
959.052	79.74592
959.225	-12.99502
959.398	98.72115
959.572	147.22146
959.745	88.17913
959.918	157.7665
960.091	138.7858
960.264	155.65745
960.438	58.66448
960.611	132.45929
960.784	107.15516
960.957	180.96744
961.13	71.31307
961.303	164.09378
961.476	29.15432
961.649	124.02423
961.822	98.72115
961.995	166.20292
962.168	180.96744
962.341	107.15516
962.514	149.33043
962.686	90.28749
962.859	64.98867
963.032	88.17913
963.205	153.54842
963.378	107.15516
963.551	92.39587
963.723	117.69816
963.896	159.87558
964.069	90.28749
964.242	164.09378
964.414	164.09378
964.587	149.33043
964.76	147.22146
964.932	96.6127
965.105	-4.56592
965.278	174.63967
965.45	130.35049
965.623	121.91552
965.795	149.33043
965.968	147.22146
966.14	113.4809
966.313	107.15516
966.485	73.42125
966.658	79.74592
966.83	90.28749
967.003	86.0708
967.175	96.6127
967.348	86.0708
967.52	54.44846
967.692	109.26371
967.865	138.7858
968.037	136.67694
968.209	48.12461
968.382	1.75615
968.554	212.60907
968.726	67.09678
968.898	159.87558
969.071	60.77252
969.243	90.28749
969.415	113.4809
969.587	96.6127
969.759	83.96248
969.932	90.28749
970.104	98.72115
970.276	96.6127
970.448	147.22146
970.62	88.17913
970.792	46.01671
970.964	18.61609
971.136	117.69816
971.308	121.91552
971.48	121.91552
971.652	81.85419
971.824	155.65745
971.996	149.33043
972.168	134.5681
972.339	138.7858
972.511	214.71868
972.683	121.91552
972.855	117.69816
973.027	69.20492
973.199	69.20492
973.37	134.5681
973.542	105.04662
973.714	29.15432
973.886	174.63967
974.057	94.50427
974.229	109.26371
974.401	121.91552
974.572	132.45929
974.744	81.85419
974.915	81.85419
975.087	96.6127
975.259	92.39587
975.43	46.01671
975.602	92.39587
975.773	94.50427
975.945	31.26204
976.116	143.00359
976.288	1.75615
976.459	107.15516
976.63	86.0708
976.802	113.4809
976.973	90.28749
977.145	50.23254
977.316	115.58952
977.487	50.23254
977.659	10.18593
977.83	31.26204
978.001	62.88058
978.172	64.98867
978.344	115.58952
978.515	10.18593
978.686	8.07845
978.857	37.58533
979.028	41.80097
979.2	54.44846
979.371	100.82962
979.542	52.34049
979.713	37.58533
979.884	48.12461
980.055	46.01671
980.226	33.36978
980.397	3.86356
980.568	62.88058
980.739	92.39587
980.91	62.88058
981.081	96.6127
981.252	71.31307
981.423	71.31307
981.594	92.39587
981.765	12.29343
981.936	172.53045
982.106	111.37229
982.277	-12.99502
982.448	46.01671
982.619	105.04662
982.79	12.29343
982.96	134.5681
983.131	54.44846
983.302	83.96248
983.472	109.26371
983.643	100.82962
983.814	81.85419
983.984	130.35049
984.155	54.44846
984.326	46.01671
984.496	12.29343
984.667	16.50851
984.837	14.40096
985.008	27.04663
985.178	75.52945
985.349	132.45929
985.519	121.91552
985.69	69.20492
985.86	71.31307
986.031	79.74592
986.201	29.15432
986.371	117.69816
986.542	-2.45859
986.712	-48.81431
986.882	37.58533
987.053	130.35049
987.223	83.96248
987.393	-23.53085
987.563	69.20492
987.734	88.17913
987.904	-25.63794
988.074	48.12461
988.244	54.44846
988.414	-0.35123
988.585	75.52945
988.755	79.74592
988.925	88.17913
989.095	16.50851
989.265	20.72369
989.435	12.29343
989.605	48.12461
989.775	60.77252
989.945	90.28749
990.115	20.72369
990.285	39.69314
990.455	37.58533
990.625	33.36978
990.795	37.58533
990.965	29.15432
991.134	71.31307
991.304	-4.56592
991.474	48.12461
991.644	96.6127
991.814	16.50851
991.984	-17.20943
992.153	81.85419
992.323	-29.85205
992.493	79.74592
992.662	46.01671
992.832	8.07845
993.002	54.44846
993.171	29.15432
993.341	37.58533
993.511	24.93896
993.68	8.07845
993.85	3.86356
994.019	29.15432
994.189	20.72369
994.358	1.75615
994.528	46.01671
994.697	8.07845
994.867	-4.56592
995.036	-2.45859
995.206	16.50851
995.375	56.55646
995.544	46.01671
995.714	8.07845
995.883	130.35049
996.052	71.31307
996.222	79.74592
996.391	71.31307
996.56	1.75615
996.73	46.01671
996.899	58.66448
997.068	-53.02787
997.237	62.88058
997.406	-4.56592
997.576	8.07845
997.745	-19.31659
997.914	48.12461
998.083	-17.20943
998.252	37.58533
998.421	8.07845
998.59	-4.56592
998.759	54.44846
998.928	98.72115
999.097	48.12461
999.266	29.15432
999.435	29.15432
999.604	54.44846
999.773	-10.88778
999.942	20.72369
1000.111	-4.56592
1000.28	39.69314
1000.448	-2.45859
1000.617	29.15432
1000.786	73.42125
1000.955	48.12461
1001.124	22.83131
1001.292	-21.42373
1001.461	58.66448
1001.63	29.15432
1001.798	10.18593
1001.967	-29.85205
1002.136	41.80097
1002.304	20.72369
1002.473	5.97099
1002.642	12.29343
1002.81	12.29343
1002.979	29.15432
1003.147	-4.56592
1003.316	83.96248
1003.484	24.93896
1003.653	-19.31659
1003.821	58.66448
1003.99	16.50851
1004.158	41.80097
1004.327	-19.31659
1004.495	-27.74501
1004.663	22.83131
1004.832	5.97099
1005	29.15432
1005.168	29.15432
1005.337	-19.31659
1005.505	-21.42373
1005.673	-34.06606
1005.842	5.97099
1006.01	-6.67324
1006.178	81.85419
1006.346	12.29343
1006.514	-25.63794
1006.683	73.42125
1006.851	-25.63794
1007.019	-46.70749
1007.187	-21.42373
1007.355	113.4809
1007.523	29.15432
1007.691	29.15432
1007.859	33.36978
1008.027	20.72369
1008.195	-4.56592
1008.363	29.15432
1008.531	-4.56592
1008.699	48.12461
1008.867	-25.63794
1009.035	-46.70749
1009.203	102.93811
1009.37	52.34049
1009.538	79.74592
1009.706	-8.78052
1009.874	79.74592
1010.042	46.01671
1010.209	54.44846
1010.377	39.69314
1010.545	29.15432
1010.713	39.69314
1010.88	62.88058
1011.048	-4.56592
1011.216	20.72369
1011.383	-21.42373
1011.551	14.40096
1011.718	14.40096
1011.886	31.26204
1012.054	60.77252
1012.221	-21.42373
1012.389	10.18593
1012.556	12.29343
1012.724	27.04663
1012.891	69.20492
1013.058	12.29343
1013.226	54.44846
1013.393	20.72369
1013.561	12.29343
1013.728	48.12461
1013.895	-19.31659
1014.063	22.83131
1014.23	52.34049
1014.397	20.72369
1014.565	-4.56592
1014.732	12.29343
1014.899	29.15432
1015.066	29.15432
1015.233	24.93896
1015.401	46.01671
1015.568	-6.67324
1015.735	60.77252
1015.902	22.83131
1016.069	46.01671
1016.236	37.58533
1016.403	3.86356
1016.57	64.98867
1016.737	92.39587
1016.904	92.39587
1017.071	-55.13461
1017.238	-17.20943
1017.405	-23.53085
1017.572	-17.20943
1017.739	14.40096
1017.906	-4.56592
1018.073	41.80097
1018.24	67.09678
1018.407	-27.74501
1018.573	-10.88778
1018.74	22.83131
1018.907	39.69314
1019.074	52.34049
1019.241	12.29343
1019.407	56.55646
1019.574	31.26204
1019.741	50.23254
1019.907	-38.27997
1020.074	50.23254
1020.241	-0.35123
1020.407	67.09678
1020.574	37.58533
1020.74	64.98867
1020.907	-8.78052
1021.073	41.80097
1021.24	12.29343
1021.406	62.88058
1021.573	41.80097
1021.739	-8.78052
1021.906	-44.60065
1022.072	-2.45859
1022.239	-27.74501
1022.405	-2.45859
1022.571	10.18593
1022.738	96.6127
1022.904	14.40096
1023.07	39.69314
1023.237	41.80097
1023.403	3.86356
1023.569	79.74592
1023.735	31.26204
1023.902	-44.60065
1024.068	46.01671
1024.234	-2.45859
1024.4	-8.78052
1024.566	37.58533
1024.732	75.52945
1024.898	48.12461
1025.065	77.63768
1025.231	-17.20943
1025.397	56.55646
1025.563	-6.67324
1025.729	-29.85205
1025.895	16.50851
1026.061	24.93896
1026.227	-17.20943
1026.392	-21.42373
1026.558	96.6127
1026.724	-17.20943
1026.89	31.26204
1027.056	-38.27997
1027.222	3.86356
1027.388	73.42125
1027.553	-21.42373
1027.719	12.29343
1027.885	27.04663
1028.051	-19.31659
1028.216	64.98867
1028.382	60.77252
1028.548	1.75615
1028.713	73.42125
1028.879	75.52945
1029.045	-23.53085
1029.21	8.07845
1029.376	41.80097
1029.541	29.15432
1029.707	-38.27997
1029.873	12.29343
1030.038	-34.06606
1030.204	58.66448
1030.369	-34.06606
1030.534	-12.99502
1030.7	73.42125
1030.865	16.50851
1031.031	8.07845
1031.196	29.15432
1031.361	24.93896
1031.527	56.55646
1031.692	3.86356
1031.857	20.72369
1032.023	20.72369
1032.188	-0.35123
1032.353	22.83131
1032.518	92.39587
1032.684	-6.67324
1032.849	39.69314
1033.014	14.40096
1033.179	46.01671
1033.344	-29.85205
1033.509	-23.53085
1033.674	29.15432
1033.839	-21.42373
1034.004	46.01671
1034.17	3.86356
1034.335	88.17913
1034.5	62.88058
1034.664	-4.56592
1034.829	-2.45859
1034.994	52.34049
1035.159	20.72369
1035.324	5.97099
1035.489	-21.42373
1035.654	-4.56592
1035.819	20.72369
1035.984	29.15432
1036.148	54.44846
1036.313	-21.42373
1036.478	14.40096
1036.643	-2.45859
1036.807	24.93896
1036.972	50.23254
1037.137	-38.27997
1037.301	14.40096
1037.466	37.58533
1037.631	58.66448
1037.795	20.72369
1037.96	-10.88778
1038.124	20.72369
1038.289	48.12461
1038.454	33.36978
1038.618	46.01671
1038.783	-0.35123
1038.947	-10.88778
1039.111	3.86356
1039.276	-15.10224
1039.44	-19.31659
1039.605	73.42125
1039.769	-21.42373
1039.933	-27.74501
1040.098	-17.20943
1040.262	-10.88778
1040.426	8.07845
1040.591	3.86356
1040.755	39.69314
1040.919	60.77252
1041.083	-2.45859
1041.248	121.91552
1041.412	54.44846
1041.576	48.12461
1041.74	16.50851
1041.904	3.86356
1042.068	10.18593
1042.232	3.86356
1042.397	29.15432
1042.561	58.66448
1042.725	-25.63794
1042.889	29.15432
1043.053	29.15432
1043.217	-53.02787
1043.381	22.83131
1043.544	8.07845
1043.708	-36.17303
1043.872	56.55646
1044.036	-6.67324
1044.2	20.72369
1044.364	16.50851
1044.528	5.97099
1044.691	22.83131
1044.855	29.15432
1045.019	-44.60065
1045.183	75.52945
1045.346	-50.9211
1045.51	-12.99502
1045.674	-0.35123
1045.837	-97.26409
1046.001	-27.74501
1046.165	27.04663
1046.328	39.69314
1046.492	5.97099
1046.655	-21.42373
1046.819	16.50851
1046.983	20.72369
1047.146	12.29343
1047.31	-71.98763
1047.473	41.80097
1047.636	-19.31659
1047.8	48.12461
1047.963	20.72369
1048.127	37.58533
1048.29	37.58533
