Data from mixed_try1_USB4F045381__30__00052.txt Node

Date: Thu Apr 03 19:36:02 EDT 2025
User: mmckonesweet
Spectrometer: USB4F04538
Trigger mode: 4
Integration Time (sec): 2.700000E-3
Scans to average: 1
Electric dark correction enabled: true
Nonlinearity correction enabled: true
Boxcar width: 0
XAxis mode: Wavelengths
Number of Pixels in Spectrum: 3648
>>>>>Begin Spectral Data<<<<<
345.52	66.74543
345.736	66.74543
345.952	66.74543
346.168	64.63732
346.384	16.15725
346.6	-36.52418
346.816	66.74543
347.032	-4.91714
347.248	14.04971
347.464	22.48004
347.68	45.6654
347.896	3.51233
348.112	3.51233
348.328	-53.37899
348.544	-72.33872
348.76	-9.13173
348.975	20.37242
349.191	30.91075
349.407	37.23403
349.623	-47.05863
349.839	66.74543
350.055	24.58768
350.27	28.80304
350.486	104.6952
350.702	-57.59244
350.918	-2.80981
351.133	-0.70246
351.349	20.37242
351.565	-53.37899
351.781	62.52924
351.996	28.80304
352.212	16.15725
352.428	-34.41722
352.644	62.52924
352.859	-11.23899
353.075	33.01848
353.291	20.37242
353.506	-34.41722
353.722	14.04971
353.938	58.31314
354.153	28.80304
354.369	24.58768
354.584	20.37242
354.8	5.61975
355.016	-9.13173
355.231	9.83468
355.447	-4.91714
355.662	14.04971
355.878	79.39455
356.093	41.44967
356.309	-30.20322
356.524	111.02086
356.74	30.91075
356.955	22.48004
357.171	43.55752
357.386	-49.16544
357.602	3.51233
357.817	3.51233
358.033	-15.45344
358.248	22.48004
358.464	119.45538
358.679	-11.23899
358.895	100.4782
359.11	47.77329
359.325	-30.20322
359.541	45.6654
359.756	87.82774
359.972	1.40492
360.187	7.72721
360.402	11.94218
360.618	87.82774
360.833	-9.13173
361.048	39.34183
361.264	11.94218
361.479	14.04971
361.694	18.26482
361.909	28.80304
362.125	11.94218
362.34	35.12624
362.555	73.06989
362.77	24.58768
362.986	-44.95179
363.201	3.51233
363.416	-9.13173
363.631	-32.31023
363.847	16.15725
364.062	-0.70246
364.277	-30.20322
364.492	58.31314
364.707	-9.13173
364.922	39.34183
365.138	49.88122
365.353	-13.34623
365.568	28.80304
365.783	37.23403
365.998	87.82774
366.213	56.20513
366.428	-25.98912
366.643	-28.09618
366.858	28.80304
367.073	16.15725
367.288	14.04971
367.503	3.51233
367.718	96.26129
367.933	66.74543
368.148	-2.80981
368.363	9.83468
368.578	83.6111
368.793	45.6654
369.008	45.6654
369.223	73.06989
369.438	75.17808
369.653	96.26129
369.868	56.20513
370.083	-30.20322
370.298	-44.95179
370.513	22.48004
370.728	-13.34623
370.943	3.51233
371.157	30.91075
371.372	94.15287
371.587	-0.70246
371.802	51.98916
372.017	87.82774
372.232	11.94218
372.446	24.58768
372.661	47.77329
372.876	3.51233
373.091	37.23403
373.306	35.12624
373.52	22.48004
373.735	30.91075
373.95	28.80304
374.165	9.83468
374.379	22.48004
374.594	20.37242
374.809	108.91229
375.023	45.6654
375.238	20.37242
375.453	28.80304
375.667	-23.88203
375.882	-44.95179
376.097	28.80304
376.311	-25.98912
376.526	35.12624
376.741	33.01848
376.955	-11.23899
377.17	-4.91714
377.384	-4.91714
377.599	77.2863
377.813	62.52924
378.028	37.23403
378.242	5.61975
378.457	-28.09618
378.672	113.12946
378.886	35.12624
379.101	30.91075
379.315	-2.80981
379.53	-13.34623
379.744	14.04971
379.958	54.09713
380.173	-68.12563
380.387	33.01848
380.602	54.09713
380.816	47.77329
381.031	14.04971
381.245	1.40492
381.459	64.63732
381.674	18.26482
381.888	87.82774
382.103	20.37242
382.317	39.34183
382.531	-51.27223
382.746	1.40492
382.96	16.15725
383.174	30.91075
383.388	81.50281
383.603	37.23403
383.817	56.20513
384.031	56.20513
384.246	11.94218
384.46	-17.56062
384.674	70.96171
384.888	16.15725
385.103	-11.23899
385.317	-42.84492
385.531	70.96171
385.745	22.48004
385.959	30.91075
386.174	-0.70246
386.388	3.51233
386.602	20.37242
386.816	56.20513
387.03	-0.70246
387.244	30.91075
387.458	75.17808
387.672	-28.09618
387.887	-2.80981
388.101	-36.52418
388.315	30.91075
388.529	16.15725
388.743	54.09713
388.957	-2.80981
389.171	-42.84492
389.385	-30.20322
389.599	-4.91714
389.813	47.77329
390.027	49.88122
390.241	3.51233
390.455	28.80304
390.669	14.04971
390.883	-15.45344
391.097	30.91075
391.311	14.04971
391.525	41.44967
391.738	16.15725
391.952	54.09713
392.166	-59.69913
392.38	89.9361
392.594	56.20513
392.808	5.61975
393.022	14.04971
393.236	-4.91714
393.449	7.72721
393.663	54.09713
393.877	-49.16544
394.091	7.72721
394.305	33.01848
394.518	1.40492
394.732	39.34183
394.946	-19.66778
395.16	-32.31023
395.373	68.85356
395.587	24.58768
395.801	51.98916
396.015	20.37242
396.228	-80.7646
396.442	28.80304
396.656	-13.34623
396.869	-21.77492
397.083	28.80304
397.297	20.37242
397.51	-42.84492
397.724	39.34183
397.938	22.48004
398.151	22.48004
398.365	20.37242
398.578	45.6654
398.792	56.20513
399.005	11.94218
399.219	-57.59244
399.433	22.48004
399.646	20.37242
399.86	45.6654
400.073	7.72721
400.287	-17.56062
400.5	54.09713
400.714	-61.80579
400.927	11.94218
401.141	35.12624
401.354	58.31314
401.567	-38.63112
401.781	77.2863
401.994	-38.63112
402.208	37.23403
402.421	62.52924
402.635	16.15725
402.848	49.88122
403.061	7.72721
403.275	28.80304
403.488	-57.59244
403.701	-13.34623
403.915	20.37242
404.128	54.09713
404.341	56.20513
404.555	-25.98912
404.768	33.01848
404.981	62.52924
405.195	-40.73804
405.408	81.50281
405.621	70.96171
405.834	-19.66778
406.048	62.52924
406.261	3.51233
406.474	3.51233
406.687	9.83468
406.9	22.48004
407.114	45.6654
407.327	60.42118
407.54	62.52924
407.753	28.80304
407.966	7.72721
408.179	41.44967
408.392	30.91075
408.605	-36.52418
408.819	-7.02445
409.032	-4.91714
409.245	3.51233
409.458	22.48004
409.671	7.72721
409.884	104.6952
410.097	41.44967
410.31	14.04971
410.523	30.91075
410.736	54.09713
410.949	58.31314
411.162	28.80304
411.375	45.6654
411.588	16.15725
411.801	28.80304
412.014	47.77329
412.227	54.09713
412.44	-11.23899
412.653	30.91075
412.865	20.37242
413.078	26.69535
413.291	24.58768
413.504	121.56407
413.717	47.77329
413.93	-2.80981
414.143	-4.91714
414.356	45.6654
414.568	47.77329
414.781	11.94218
414.994	3.51233
415.207	56.20513
415.42	-13.34623
415.632	-2.80981
415.845	28.80304
416.058	70.96171
416.271	20.37242
416.483	28.80304
416.696	39.34183
416.909	127.89025
417.121	3.51233
417.334	75.17808
417.547	81.50281
417.759	49.88122
417.972	45.6654
418.185	3.51233
418.397	79.39455
418.61	41.44967
418.823	20.37242
419.035	-9.13173
419.248	54.09713
419.46	-13.34623
419.673	22.48004
419.885	60.42118
420.098	-25.98912
420.311	28.80304
420.523	115.23808
420.736	66.74543
420.948	-2.80981
421.161	11.94218
421.373	70.96171
421.586	66.74543
421.798	58.31314
422.01	66.74543
422.223	20.37242
422.435	11.94218
422.648	70.96171
422.86	3.51233
423.073	54.09713
423.285	30.91075
423.497	-21.77492
423.71	-4.91714
423.922	-0.70246
424.134	-23.88203
424.347	96.26129
424.559	129.99903
424.771	20.37242
424.984	28.80304
425.196	87.82774
425.408	54.09713
425.621	14.04971
425.833	-21.77492
426.045	56.20513
426.257	3.51233
426.47	22.48004
426.682	45.6654
426.894	54.09713
427.106	-30.20322
427.318	56.20513
427.531	64.63732
427.743	49.88122
427.955	49.88122
428.167	-13.34623
428.379	37.23403
428.591	20.37242
428.804	24.58768
429.016	-25.98912
429.228	111.02086
429.44	18.26482
429.652	-7.02445
429.864	89.9361
430.076	41.44967
430.288	96.26129
430.5	33.01848
430.712	26.69535
430.924	66.74543
431.136	33.01848
431.348	5.61975
431.56	123.67278
431.772	33.01848
431.984	60.42118
432.196	16.15725
432.408	9.83468
432.62	-4.91714
432.832	45.6654
433.044	39.34183
433.256	47.77329
433.468	-4.91714
433.679	30.91075
433.891	100.4782
434.103	54.09713
434.315	1.40492
434.527	68.85356
434.739	11.94218
434.95	-38.63112
435.162	62.52924
435.374	87.82774
435.586	11.94218
435.798	-38.63112
436.009	75.17808
436.221	28.80304
436.433	62.52924
436.645	30.91075
436.856	-42.84492
437.068	79.39455
437.28	-11.23899
437.491	26.69535
437.703	-2.80981
437.915	94.15287
438.126	87.82774
438.338	70.96171
438.55	58.31314
438.761	41.44967
438.973	54.09713
439.184	58.31314
439.396	3.51233
439.608	70.96171
439.819	92.04447
440.031	70.96171
440.242	64.63732
440.454	106.80373
440.665	-4.91714
440.877	98.36974
441.088	47.77329
441.3	100.4782
441.511	106.80373
441.723	-30.20322
441.934	22.48004
442.146	24.58768
442.357	96.26129
442.569	121.56407
442.78	104.6952
442.991	123.67278
443.203	87.82774
443.414	28.80304
443.626	140.5432
443.837	14.04971
444.048	81.50281
444.26	100.4782
444.471	3.51233
444.682	89.9361
444.894	96.26129
445.105	75.17808
445.316	45.6654
445.528	89.9361
445.739	39.34183
445.95	45.6654
446.161	60.42118
446.373	20.37242
446.584	96.26129
446.795	108.91229
447.006	64.63732
447.217	62.52924
447.429	-19.66778
447.64	64.63732
447.851	132.10782
448.062	92.04447
448.273	125.7815
448.484	73.06989
448.695	41.44967
448.907	148.97893
449.118	129.99903
449.329	64.63732
449.54	37.23403
449.751	-4.91714
449.962	-13.34623
450.173	75.17808
450.384	176.39736
450.595	125.7815
450.806	64.63732
451.017	70.96171
451.228	96.26129
451.439	51.98916
451.65	58.31314
451.861	3.51233
452.072	81.50281
452.283	96.26129
452.494	54.09713
452.705	87.82774
452.915	68.85356
453.126	70.96171
453.337	41.44967
453.548	146.86997
453.759	58.31314
453.97	106.80373
454.181	98.36974
454.391	20.37242
454.602	108.91229
454.813	-47.05863
455.024	123.67278
455.235	81.50281
455.445	89.9361
455.656	113.12946
455.867	62.52924
456.078	45.6654
456.288	37.23403
456.499	129.99903
456.71	165.85139
456.921	81.50281
457.131	81.50281
457.342	70.96171
457.553	24.58768
457.763	56.20513
457.974	75.17808
458.184	125.7815
458.395	100.4782
458.606	64.63732
458.816	106.80373
459.027	96.26129
459.237	104.6952
459.448	155.30595
459.659	146.86997
459.869	155.30595
460.08	75.17808
460.29	170.06972
460.501	199.6003
460.711	163.74226
460.922	151.08791
461.132	98.36974
461.343	20.37242
461.553	159.52406
461.764	159.52406
461.974	146.86997
462.184	157.41499
462.395	191.16258
462.605	148.97893
462.816	125.7815
463.026	140.5432
463.236	142.6521
463.447	178.50662
463.657	174.28813
463.867	174.28813
464.078	172.17891
464.288	180.61589
464.498	172.17891
464.709	132.10782
464.919	180.61589
465.129	182.72519
465.339	214.36707
465.55	227.02509
465.76	180.61589
465.97	193.27198
466.18	210.14789
466.391	224.91537
466.601	273.44377
466.811	153.19692
467.021	281.88452
467.231	334.64583
467.441	239.6838
467.651	222.80567
467.862	193.27198
468.072	309.31899
468.282	252.34322
468.492	275.55393
468.702	321.98209
468.912	298.76691
469.122	283.99475
469.332	334.64583
469.542	294.5462
469.752	429.64347
469.962	343.08867
470.172	469.76342
470.382	448.64696
470.592	446.5354
470.802	478.21043
471.012	488.76953
471.222	406.41873
471.432	452.87013
471.642	423.30926
471.852	471.87515
472.062	471.87515
472.272	531.00957
472.482	526.78531
472.691	630.29525
472.901	522.5611
473.111	653.53639
473.321	628.18249
473.531	704.24928
473.741	543.68269
473.95	754.96854
474.16	697.90981
474.37	809.92106
474.58	750.74171
474.79	733.83477
474.999	776.10334
475.209	881.79147
475.419	924.07269
475.628	991.72881
475.838	799.35276
476.048	974.81412
476.258	1000.18632
476.467	1127.05997
476.677	1118.60115
476.886	1201.07748
477.096	1169.3551
477.306	1186.2736
477.515	1002.30071
477.725	1084.76663
477.935	1207.42206
478.144	1253.94978
478.354	1249.71993
478.563	1478.14147
478.773	1321.6287
478.982	1575.43299
479.192	1482.37157
479.401	1522.55741
479.611	1537.36265
479.82	1520.44237
480.03	1550.05281
480.239	1664.26156
480.449	1626.19264
480.658	1856.70491
480.868	1810.18317
481.077	1871.50679
481.287	1829.21506
481.496	1890.53742
481.705	1746.74107
481.915	2085.04527
482.124	2008.93996
482.333	2129.43569
482.543	1994.14069
482.752	2159.0274
482.961	2159.0274
483.171	2275.26463
483.38	2256.24582
483.589	2431.61184
483.799	2385.136
484.008	2651.24248
484.217	2499.20377
484.426	2509.76398
484.636	2423.16206
484.845	2737.79141
485.054	2516.09997
485.263	2733.57002
485.472	2556.2255
485.682	2822.20794
485.891	2691.35322
486.1	2944.57217
486.309	2931.91606
486.518	2944.57217
486.727	2919.25942
486.936	3210.22278
487.146	3020.49756
487.355	3100.61948
487.564	3191.25613
487.773	3568.21989
487.982	3227.0809
488.191	3425.08229
488.4	3273.43522
488.609	3521.91989
488.818	3382.96717
489.027	3780.66203
489.236	3593.47066
489.445	3721.78675
489.654	3578.74137
489.863	3763.84207
490.072	3713.37475
490.281	3902.56893
490.49	3877.3523
490.698	3988.70383
490.907	3927.78266
491.116	3999.20575
491.325	3967.69846
491.534	3999.20575
491.743	3854.23452
491.952	4307.72937
492.16	4123.08945
492.369	4190.25025
492.578	4297.24289
492.787	4341.28248
492.996	4347.57307
493.204	4508.96447
493.413	4341.28248
493.622	4659.75748
493.831	4418.85279
494.039	4716.27494
494.248	4668.13147
494.457	4816.70976
494.665	4643.00841
494.874	4835.53547
495.083	4770.68362
495.291	4818.8016
495.5	4948.45081
495.709	5000.70376
495.917	4854.35932
496.126	5144.84695
496.335	5055.03153
496.543	5136.49384
496.752	5163.6401
496.96	5428.63051
497.169	5169.90406
497.377	5470.32682
497.586	5199.13311
497.794	5443.22529
498.003	5255.49051
498.211	5422.37526
498.42	5338.95163
498.628	5461.98831
498.837	5491.17144
499.045	5626.6041
499.254	5526.6019
499.462	5755.69317
499.671	5639.10055
499.879	5788.99175
500.087	5757.77451
500.296	5720.3068
500.504	5770.26204
500.713	5770.26204
500.921	5857.65099
501.129	5882.61162
501.338	5857.65099
501.546	6144.49327
501.754	5974.10486
501.962	6011.52075
502.171	6055.16298
502.379	6150.724
502.587	6279.44501
502.795	6260.76529
503.004	5940.83987
503.212	6347.92111
503.42	6219.24801
503.628	6513.81839
503.837	6231.70418
504.045	6399.78001
504.253	6569.77518
504.461	6720.98154
504.669	6621.572
504.877	6739.61494
505.085	6567.70301
505.294	6594.63946
505.502	6387.3352
505.71	6961.00383
505.918	6671.2834
506.126	7000.28875
506.334	6658.85679
506.542	6956.8681
506.75	6708.55825
506.958	6869.99691
507.166	6694.06335
507.374	6807.92155
507.582	6776.87618
507.79	7060.23429
507.998	7014.76009
508.206	7182.13439
508.414	7078.83424
508.622	7155.2817
508.83	6925.84726
509.037	7180.06893
509.245	7058.16751
509.453	7138.75511
509.661	7147.01858
509.869	7477.26842
510.077	7345.23579
510.285	7489.64193
510.492	7374.12554
510.7	7421.57801
510.908	7229.63381
511.116	7475.20609
511.324	7312.21368
511.531	7510.26272
511.739	7489.64193
511.947	7586.54095
512.155	7495.82839
512.362	7611.27355
512.57	7603.02969
512.778	7811.08348
512.985	7600.96867
513.193	7757.54559
513.401	7708.11343
513.608	7866.66561
513.816	7868.72392
514.024	8064.16945
514.231	7942.80923
514.439	8058.00029
514.646	7774.02029
514.854	8000.41274
515.061	7739.00995
515.269	8242.99636
515.477	8113.51613
515.684	7864.60728
515.892	8253.26919
516.099	8169.01733
516.307	8179.29374
516.514	8308.73401
516.722	8216.28467
516.929	8401.14375
517.136	8177.2385
517.344	8263.54153
517.551	8247.10555
517.759	8419.62099
517.966	8345.70263
518.173	8448.36027
518.381	8325.16529
518.588	8536.6075
518.796	8509.93181
519.003	8784.7449
519.21	8637.12567
519.418	8864.66579
519.625	8612.51314
519.832	8684.2922
520.039	8614.56428
520.247	8753.99875
520.454	8690.44364
520.661	8997.80674
520.868	9071.51433
521.076	9063.32571
521.283	8811.38825
521.49	8936.36639
521.697	8889.25132
521.904	9349.76496
522.112	8971.18454
522.319	9286.36756
522.526	9003.94991
522.733	9302.7297
522.94	9327.27093
523.147	9239.32044
523.354	9337.49573
523.561	9315.00061
523.768	9304.77489
523.975	9466.29321
524.183	9198.40268
524.39	9382.47999
524.597	9525.55937
524.804	9480.60007
525.011	9537.81966
525.218	9664.4761
525.425	9648.13671
525.632	9691.02551
525.838	9637.92408
526.045	9611.36944
526.252	9758.40852
526.459	9699.19404
526.666	9811.48653
526.873	10031.85724
527.08	9989.02068
527.287	9993.10062
527.494	9989.02068
527.701	10176.63937
527.907	9854.34982
528.114	10168.4845
528.321	9942.09715
528.528	10282.63272
528.735	10243.90865
528.941	10235.75559
529.148	10044.0951
529.355	10227.60231
529.562	10199.06412
529.768	10431.36992
529.975	10076.72689
530.182	10280.59473
530.388	10276.51872
530.595	10419.14758
530.802	10296.89826
531.008	10659.43604
531.215	10531.1683
531.422	10624.82895
531.628	10431.36992
531.835	10598.36231
532.042	10736.78032
532.248	11023.62022
532.455	10818.1767
532.661	10655.3648
532.868	10787.65528
533.074	10834.45372
533.281	10687.93333
533.487	11176.10411
533.694	10846.66099
533.9	11334.62451
534.107	10887.34889
534.313	11131.38177
534.52	11212.69132
534.726	11037.85463
534.933	11082.58786
535.139	11446.36485
535.345	11072.42168
535.552	11220.82135
535.758	11086.65426
535.965	11308.20876
536.171	11082.58786
536.377	11549.95246
536.584	11411.8301
536.79	11716.45449
536.996	11665.69812
537.203	11627.11954
537.409	11470.74064
537.615	11458.55292
537.821	11381.35592
538.028	11893.04432
538.234	11606.8137
538.44	11964.06831
538.646	11669.75884
538.853	12033.0536
539.059	11891.01491
539.265	11943.77676
539.471	11809.83188
539.677	12223.73119
539.883	12095.94404
540.09	11836.21784
540.296	11986.38809
540.502	12227.78744
540.708	12028.99589
540.914	12185.19531
541.12	11976.24285
541.326	12282.54406
541.532	12434.61902
541.738	12503.54722
541.944	12290.65571
542.15	12410.2896
542.356	12308.9065
542.562	12450.8381
542.768	12430.56419
542.974	12714.3412
543.18	12629.22082
543.386	12762.97678
543.592	12787.29333
543.798	12963.56473
544.004	12769.05599
544.21	13046.62148
544.415	12807.5565
544.621	12793.37234
544.827	12533.95434
545.033	13198.5335
545.239	12900.76003
545.445	13103.3384
545.651	12807.5565
545.856	12979.77159
546.062	13036.49305
546.268	12912.91617
546.474	12854.1597
546.679	12821.74039
546.885	13172.20395
547.091	13200.55881
547.297	12965.59061
547.502	13293.71867
547.708	13194.48285
547.914	13243.08946
548.119	13283.59305
548.325	13372.69499
548.531	13311.94454
548.736	13512.40751
548.942	13074.98041
549.147	13204.60944
549.353	13360.5452
549.559	13567.07277
549.764	13573.14653
549.97	13601.49032
550.175	13546.82668
550.381	13842.38669
550.586	13153.97536
550.792	13597.44125
550.997	13506.33342
551.203	13660.20032
551.408	13755.34519
551.614	13973.9512
551.819	13757.36947
552.025	13977.99916
552.23	13854.53159
552.435	13990.14299
552.641	14083.24277
552.846	14226.93098
553.052	14150.02875
553.257	13919.3027
553.462	14245.14425
553.668	14305.85404
553.873	14210.74128
554.078	14299.78314
554.283	14405.01002
554.489	14502.13882
554.694	14530.46745
554.899	14528.44398
555.105	14623.54555
555.31	14467.73941
555.515	14388.82156
555.72	14556.77238
555.925	14309.90131
556.131	14751.01848
556.336	14751.01848
556.541	14886.58144
556.746	14601.28797
556.951	14694.36431
557.156	14425.24546
557.361	14961.44346
557.567	15186.02712
557.772	14949.30371
557.977	14777.32199
558.182	14904.79118
558.387	14898.72127
558.592	15317.53997
558.797	14823.85865
559.002	15147.58498
559.207	15038.32822
559.412	15066.65409
559.617	15072.72391
559.822	14973.58319
560.027	15012.02559
560.232	15123.30573
560.437	15005.95574
560.642	14971.5599
560.847	15034.28167
561.051	15534.03341
561.256	15240.65546
561.461	15465.24049
561.666	15378.23855
561.871	15222.446
562.076	15465.24049
562.281	15382.28514
562.485	15242.67873
562.69	15171.86423
562.895	15163.77115
563.1	15303.37701
563.305	15453.10063
563.509	15410.61127
563.714	15578.54687
563.919	15708.04274
564.123	15471.31042
564.328	15527.96342
564.533	15513.80012
564.737	15434.89088
564.942	15627.10742
565.147	15952.88217
565.351	15693.87896
565.556	15649.3645
565.761	15710.06614
565.965	15637.22426
566.17	15457.14725
566.374	15578.54687
566.579	15706.01934
566.784	15467.2638
566.988	15778.86238
567.193	16191.66995
567.397	15841.58943
567.602	16250.35849
567.806	15819.33132
568.011	15967.04698
568.215	16315.11998
568.42	15788.97958
568.624	15847.65985
568.828	15815.28441
569.033	15813.26096
569.237	16254.40602
569.442	16335.35833
569.646	16205.83601
569.85	16264.5249
570.055	16693.61075
570.259	16566.0895
570.463	16470.96027
570.668	16566.0895
570.872	16258.45357
571.076	16387.97893
571.281	16638.95768
571.485	16056.08449
571.689	16495.24814
571.893	16645.03017
572.098	16762.43556
572.302	16620.74037
572.506	16699.68342
572.71	16653.12684
572.914	16564.06542
573.119	16738.14414
573.323	16796.84901
573.527	16543.82479
573.731	16883.898
573.935	16750.28981
574.139	16697.65919
574.343	16630.86108
574.547	17100.52918
574.751	17090.40553
574.955	17309.09214
575.159	16894.02028
575.364	16841.38512
575.568	16932.48552
575.772	16920.3385
575.976	16887.9469
576.18	16995.24664
576.383	17298.96701
576.587	17163.29734
576.791	16835.31195
576.995	17132.92531
577.199	16989.17287
577.403	17015.49271
577.607	17556.16915
577.811	17562.2454
578.015	17102.55391
578.219	17207.84414
578.422	17367.81939
578.626	17375.9199
578.83	17339.46799
579.034	17507.56015
579.238	17661.49503
579.442	17481.23105
579.645	17414.398
579.849	17396.1714
580.053	17509.58549
580.257	17539.96595
580.46	17665.5462
580.664	17635.16273
580.868	17594.65258
581.071	18078.83744
581.275	17550.09292
581.479	17770.88136
581.682	17519.71223
581.886	17841.78517
582.09	17750.6239
582.293	18155.83928
582.497	18007.91929
582.7	18064.65346
582.904	18109.23228
583.107	17943.08366
583.311	18054.52215
583.515	17924.84929
583.718	17675.67419
583.922	18372.68881
584.125	18232.8464
584.329	18149.76
584.532	18226.7667
584.735	18654.45527
584.939	18113.28499
585.142	17989.68391
585.346	17945.10972
585.549	18650.40055
585.753	18526.73895
585.956	18285.53855
586.159	18512.5492
586.363	18603.77235
586.566	18887.62842
586.769	18613.90874
586.973	18812.60177
587.176	18991.05253
587.379	18579.44541
587.582	18855.18379
587.786	18561.20057
587.989	18403.0917
588.192	18538.90175
588.395	19104.62836
588.599	18897.76758
588.802	19011.33299
589.005	18778.13189
589.208	19155.33597
589.411	18913.99044
589.615	18802.46345
589.818	19317.61754
590.021	19161.42105
590.224	19070.14863
590.427	18976.85644
590.63	19135.05262
590.833	19191.84703
591.036	19133.0243
591.239	19512.39031
591.442	18995.10859
591.645	19206.04614
591.848	19189.8186
592.051	19431.23034
592.254	19072.17682
592.457	19498.18683
592.66	19469.7805
592.863	19713.28991
593.066	19542.82701
593.269	19672.70083
593.472	19589.49844
593.675	19559.0603
593.878	19703.14248
594.081	20084.75795
594.284	19967.00967
594.486	20034.00265
594.689	20074.60668
594.892	19904.08105
595.095	19812.74024
595.298	19983.24997
595.5	19914.23056
595.703	19922.35023
595.906	19737.64416
596.109	19759.96942
596.311	19887.84206
596.514	20129.42479
596.717	20029.94234
596.92	20271.5601
597.122	19985.28003
597.325	19737.64416
597.528	19843.18623
597.73	20255.31503
597.933	19857.39468
598.136	20165.9719
598.338	20074.60668
598.541	20253.28441
598.743	20165.9719
598.946	20332.48154
599.148	20470.58412
599.351	20310.14324
599.554	20190.3374
599.756	20084.75795
599.959	20421.83982
600.161	20484.80166
600.363	20340.60469
600.566	20588.39279
600.768	20377.15966
600.971	20797.6393
601.173	20578.23631
601.376	20919.55076
601.578	20687.93174
601.78	21104.47806
601.983	20716.37328
602.185	20694.02629
602.388	20334.51232
602.59	20757.00546
602.792	20852.49762
602.995	20767.16377
603.197	20659.49102
603.399	20622.92558
603.601	20472.61518
603.804	20793.57585
604.006	20385.28318
604.208	20576.20503
604.41	20931.74272
604.613	20795.60757
604.815	20836.24299
605.017	21291.47185
605.219	21181.71046
605.421	21098.38101
605.623	20968.31949
605.826	21112.60751
606.028	20880.94385
606.23	20986.60838
606.432	20434.02566
606.634	21159.35311
606.836	20746.84726
607.038	21128.8666
607.24	20789.5124
607.442	21244.72019
607.644	21226.42664
607.846	21380.91575
608.048	21271.14478
608.25	21456.13594
608.452	21210.16598
608.654	21240.65492
608.856	20870.78439
609.058	21181.71046
609.26	21498.83091
609.462	21594.39264
609.664	21732.66757
609.866	21384.98156
610.067	21098.38101
610.269	21134.96383
610.471	21090.25167
610.673	21299.60279
610.875	21216.2637
611.077	21598.4593
611.278	21419.54165
611.48	21244.72019
611.682	20966.28741
611.884	21193.90559
612.085	21376.84995
612.287	21427.6736
612.489	21076.02549
612.69	21315.86487
612.892	21305.70104
613.094	21765.20546
613.295	21643.19349
613.497	21295.53731
613.699	21195.93812
613.9	21346.35695
614.102	21195.93812
614.304	21401.24499
614.505	21084.15472
614.707	21336.19282
614.908	21250.81811
615.11	21641.16008
615.311	21781.47479
615.513	21702.16419
615.714	21228.45924
615.916	21340.25846
616.117	21486.63216
616.319	21671.66169
616.52	21551.69377
616.722	21537.46119
616.923	21653.36062
617.124	21362.61977
617.326	21500.86404
617.527	21502.89718
617.729	21576.09291
617.93	21744.86916
618.131	21706.23126
618.333	21799.77807
618.534	21480.53285
618.735	21732.66757
618.937	21852.65598
619.138	21476.46666
619.339	21452.06984
619.54	21803.84551
619.742	21486.63216
619.943	21504.93033
620.144	21919.774
620.345	22096.74139
620.546	21710.29834
620.748	21803.84551
620.949	21763.17182
621.15	22037.74908
621.351	21724.53325
621.552	21927.9098
621.753	21708.26479
621.954	21787.57585
622.155	21765.20546
622.356	21830.28424
622.558	21783.50847
622.759	22060.1251
622.96	21864.85895
623.161	22458.90056
623.362	22110.98139
623.563	22058.0909
623.764	21791.64324
623.965	21775.37376
624.166	21793.67694
624.366	21858.75745
624.567	21999.10066
624.768	22033.68076
624.969	21956.38559
625.17	22017.40764
625.371	22192.35633
625.572	22086.57008
625.773	22082.50158
625.973	22090.63859
626.174	21997.06657
626.375	22011.30528
626.576	22106.9128
626.777	22228.97699
626.977	21818.08167
627.178	22204.56308
627.379	21887.23141
627.58	22151.66811
627.78	22465.00536
627.981	22047.91994
628.182	22082.50158
628.382	22436.51658
628.583	22167.94322
628.784	22188.28744
628.984	21596.42597
629.185	22228.97699
629.386	21547.6273
629.586	22412.09819
629.787	22237.11508
629.987	22509.77487
630.188	22263.56427
630.388	21936.04567
630.589	22047.91994
630.79	22241.18414
630.99	22249.32232
631.191	22475.1801
631.391	22556.5812
631.591	22428.37706
631.792	22465.00536
631.992	22593.21356
632.193	22495.52984
632.393	22383.61073
632.594	22361.22822
632.794	22312.39519
632.994	22674.6229
633.195	22408.02851
633.395	22275.7718
633.595	22570.82699
633.796	22422.27246
633.996	22499.59983
634.196	22202.52861
634.397	22558.61631
634.597	22399.88919
634.797	23134.68913
634.997	22526.05512
635.198	22874.09934
635.398	22271.70261
635.598	22587.10809
635.798	22597.2839
635.998	22756.03785
636.199	22517.91497
636.399	22483.31995
636.599	22231.01151
636.799	22611.53017
636.999	22190.32188
637.199	22633.91753
637.399	22754.00241
637.599	22865.9568
637.799	22668.51701
637.999	23183.55576
638.199	23024.74614
638.399	22815.06715
638.599	22906.67006
638.799	22943.31315
638.999	23148.94171
639.199	22739.75441
639.399	22729.57738
639.599	23205.95359
639.799	22664.44643
639.999	23240.5692
640.199	22572.86211
640.399	22863.92117
640.599	22255.42599
640.799	23440.13597
640.998	22986.0648
641.198	23167.26668
641.398	22694.97612
641.598	23340.34877
641.798	23130.617
641.997	23319.98497
642.197	23301.65782
642.397	23220.20696
642.597	23022.71025
642.796	22979.95733
642.996	22790.64088
643.196	23248.71418
643.395	22990.13646
643.595	22723.4712
643.795	23163.19444
643.994	23324.05771
644.194	23096.00439
644.394	23142.83344
644.593	22973.84989
644.793	23118.40068
644.992	22957.56353
645.192	23091.93238
645.392	23100.07641
645.591	23348.49438
645.791	23165.23056
645.99	23362.74932
646.19	23006.42325
646.389	23248.71418
646.589	23246.67793
646.788	23362.74932
646.987	23073.6085
647.187	23770.0973
647.386	23328.13046
647.586	23450.31876
647.785	23421.80714
647.984	23399.40559
648.184	23222.24317
648.383	23478.83099
648.582	23391.25967
648.782	23480.8676
648.981	23051.21302
649.18	23409.58807
649.38	23291.47618
649.579	23928.99543
649.778	23611.2171
649.977	23725.2831
650.177	23493.08733
650.376	23725.2831
650.575	23478.83099
650.774	23535.85726
650.973	23548.07749
651.173	23517.52712
651.372	23364.78576
651.571	23780.28255
651.77	24002.33893
651.969	23751.76405
652.168	23527.7105
652.367	23715.09825
652.566	23574.55503
652.765	24065.49877
652.964	23812.87583
653.163	23649.91701
653.362	23576.59179
653.561	23763.98619
653.76	23505.30717
653.959	23672.32271
654.158	24024.75018
654.357	23580.66531
654.556	23476.79438
654.755	23847.50701
654.954	23743.61601
655.153	23598.9963
655.352	23945.29367
655.551	23902.51119
655.749	24032.89981
655.948	24034.93722
656.147	23931.0327
656.346	24501.57667
656.545	24167.3751
656.743	23605.10668
656.942	24118.4736
657.141	23904.54842
657.34	24012.52582
657.538	23955.48016
657.737	23975.85335
657.936	24314.08898
658.135	23776.20844
658.333	24354.84529
658.532	24240.73029
658.731	24161.26232
658.929	24032.89981
659.128	24043.0869
659.326	23635.65902
659.525	24206.0899
659.724	24124.5862
659.922	24155.14957
660.121	23623.438
660.319	24254.99421
660.518	23908.62289
660.716	24220.3535
660.915	24157.18715
661.113	24157.18715
661.312	23922.88364
661.51	24234.61722
661.709	23910.66013
661.907	23986.04006
662.105	23975.85335
662.304	24250.91879
662.502	23947.33096
662.701	24371.14811
662.899	24218.31583
663.097	24336.50482
663.296	24332.42919
663.494	24717.62182
663.692	24674.8182
663.891	24312.05119
664.089	24232.57954
664.287	24542.33775
664.485	24155.14957
664.684	24261.10736
664.882	24024.75018
665.08	24202.01461
665.278	24112.36102
665.476	24244.80568
665.675	24444.51287
665.873	24611.6339
666.071	23949.36826
666.269	24206.0899
666.467	24087.91097
666.665	24678.89469
666.863	23841.39556
667.061	24460.81661
667.259	24340.58046
667.457	24187.75119
667.655	23890.28785
667.853	24014.56321
668.051	23855.65564
668.249	24043.0869
668.447	24016.60059
668.645	24242.76799
668.843	23719.17218
669.041	24242.76799
669.239	23888.25064
669.437	23914.73463
669.635	24130.69882
669.833	24254.99421
670.031	23853.61848
670.229	23869.91586
670.426	24377.26171
670.624	24077.72356
670.822	23947.33096
671.02	24130.69882
671.218	23975.85335
671.415	24128.66128
671.613	23629.5485
671.811	24018.63799
672.009	23894.36229
672.206	24328.35357
672.404	24383.37534
672.602	24010.48844
672.799	24263.14508
672.997	24295.74898
673.195	24450.62675
673.392	24489.34854
673.59	24371.14811
673.788	23552.15092
673.985	24146.99928
674.183	23841.39556
674.38	23780.28255
674.578	23843.43271
674.775	23806.76453
674.973	24026.78758
675.17	24248.88109
675.368	24134.77392
675.565	24340.58046
675.763	24597.36681
675.96	24291.67346
676.158	24096.06094
676.355	23719.17218
676.553	24185.71357
676.75	23653.99074
676.947	23886.21343
677.145	23835.28414
677.342	23947.33096
677.539	23594.92272
677.737	23682.50725
677.934	23729.35706
678.131	23808.80163
678.329	24055.31151
678.526	24330.39137
678.723	23776.20844
678.92	24049.1992
679.118	24112.36102
679.315	23825.0985
679.512	24100.13594
679.709	24242.76799
679.906	23772.13435
680.104	23753.80106
680.301	23729.35706
680.498	23495.12396
680.695	23334.2396
680.892	23578.62855
681.089	23377.00442
681.286	23372.93152
681.483	22959.59932
681.68	23324.05771
681.877	23271.11315
682.075	23466.61139
682.272	23252.78669
682.469	23641.76957
682.665	23275.18573
682.862	23201.88123
683.059	23283.33093
683.256	23150.9778
683.453	23572.51828
683.65	23525.67382
683.847	23454.3919
684.044	23395.33262
684.241	23124.50882
684.438	23778.24549
684.635	23120.43672
684.831	23434.02633
685.028	23203.91741
685.225	23509.38048
685.422	23034.92564
685.619	23527.7105
685.815	23100.07641
686.012	23425.88019
686.209	23179.48347
686.405	23700.83959
686.602	23126.54488
686.799	23301.65782
686.996	23686.58108
687.192	23409.58807
687.389	23603.06989
687.586	23539.93066
687.782	23529.74719
687.979	23401.44208
688.175	23187.62807
688.372	23118.40068
688.568	22939.24164
688.765	22971.81409
688.962	23157.0861
689.158	23171.33893
689.355	23150.9778
689.551	22880.20629
689.748	23053.24895
689.944	22967.74248
690.14	23128.58094
690.337	23366.82219
690.533	23352.56721
690.73	22910.74146
690.926	23242.60544
691.123	22878.17064
691.319	22800.81843
691.515	22815.06715
691.712	22572.86211
691.908	22790.64088
692.104	22741.78983
692.301	22772.3215
692.497	22697.01146
692.693	22935.17014
692.889	22788.60538
693.086	22678.69352
693.282	22758.07329
693.478	22998.27983
693.674	22670.5523
693.87	22977.92152
694.067	22542.3356
694.263	22729.57738
694.459	22737.719
694.655	23203.91741
694.851	22922.95574
695.047	22839.49392
695.243	22817.1027
695.439	22536.23039
695.635	22540.30053
695.831	22719.40043
696.027	22495.52984
696.224	22357.15872
696.42	22222.87346
696.615	22861.88555
696.811	22737.719
697.007	22430.41194
697.203	22163.87442
697.399	22405.99368
697.595	22233.04603
697.791	22532.16027
697.987	22581.00265
698.183	22861.88555
698.379	22113.01569
698.575	22432.44681
698.77	22426.34219
698.966	22456.86564
699.162	22845.60068
699.358	22823.20935
699.554	22465.00536
699.749	22749.93153
699.945	22465.00536
700.141	22399.88919
700.337	22314.42986
700.532	22666.48172
700.728	22605.4246
700.924	22438.55147
701.119	22163.87442
701.315	22222.87346
701.511	21679.79561
701.706	22253.39143
701.902	22096.74139
702.097	22106.9128
702.293	22167.94322
702.489	22186.253
702.684	22151.66811
702.88	22269.66802
703.075	21671.66169
703.271	22328.67263
703.466	22300.18726
703.662	22328.67263
703.857	22300.18726
704.053	21990.96433
704.248	22009.27117
704.443	22745.86067
704.639	22591.1784
704.834	22493.49485
705.03	22245.25323
705.225	22076.39886
705.42	22265.59885
705.616	22290.01409
705.811	21750.97001
706.006	21962.48764
706.202	22037.74908
706.397	22302.22191
706.592	22106.9128
706.787	22267.63344
706.983	21887.23141
707.178	22416.16789
707.373	21716.39899
707.568	21820.11542
707.763	21767.23912
707.959	21872.99434
708.154	21458.16899
708.349	21732.66757
708.544	21992.99841
708.739	21822.14918
708.934	21563.89327
709.129	21736.73475
709.324	21476.46666
709.519	21586.25939
709.714	21533.39478
709.909	21720.46611
710.104	21411.40976
710.299	21515.09612
710.494	21391.08032
710.689	21868.92663
710.884	21785.54216
711.079	22117.08431
711.274	21940.11362
711.469	22405.99368
711.664	21671.66169
711.859	21712.33188
712.054	21384.98156
712.249	21513.06295
712.443	21740.80195
712.638	21980.794
712.833	20974.41575
713.028	21258.94873
713.223	21313.83209
713.417	21488.66528
713.612	21346.35695
713.807	21818.08167
714.002	21720.46611
714.196	21901.46867
714.391	21982.82806
714.586	22037.74908
714.78	21791.64324
714.975	21765.20546
715.17	21411.40976
715.364	21915.70612
715.559	21787.57585
715.754	21529.32838
715.948	21537.46119
716.143	21366.68552
716.337	21153.25573
716.532	21667.59476
716.726	21734.70116
716.921	22139.46194
717.115	21909.60434
717.31	21826.2167
717.504	21602.52596
717.699	21494.76464
717.893	21234.55706
718.088	21728.6004
718.282	21370.75128
718.476	21411.40976
718.671	21049.60598
718.865	21531.36158
719.059	21039.44481
719.254	20895.16728
719.448	21084.15472
719.642	20976.44784
719.837	20600.58069
720.031	21035.38037
720.225	20549.79874
720.419	21112.60751
720.614	20919.55076
720.808	21098.38101
721.002	20539.64267
721.196	21025.21934
721.39	21049.60598
721.585	21128.8666
721.779	20669.64833
721.973	20681.83724
722.167	20570.11121
722.361	20669.64833
722.555	20746.84726
722.749	20586.36148
722.943	20474.64625
723.137	20608.70605
723.331	20316.23545
723.525	20667.61686
723.719	20746.84726
723.913	21114.63988
724.107	20499.0194
724.301	20342.63548
724.495	20111.15175
724.689	20395.43766
724.883	19995.43038
725.077	20109.12143
725.271	20172.06322
725.465	20210.64245
725.659	20440.11865
725.853	20807.79802
726.046	20399.49949
726.24	20247.19259
726.434	20040.09315
726.628	20249.22319
726.822	20299.98964
727.015	20436.05665
727.209	20202.52038
727.403	20706.2155
727.596	20911.42286
727.79	20809.82978
727.984	20732.62596
728.177	20663.55393
728.371	20606.6747
728.565	20578.23631
728.758	20383.25229
728.952	20464.49095
729.146	20247.19259
729.339	20535.58026
729.533	20314.20471
729.726	20773.2588
729.92	20431.99468
730.113	20578.23631
730.307	20732.62596
730.5	20533.54907
730.694	20474.64625
730.887	20334.51232
731.081	20499.0194
731.274	20484.80166
731.468	19782.29519
731.661	20131.45515
731.854	20133.48552
732.048	20553.8612
732.241	20009.64104
732.435	19910.17074
732.628	20310.14324
732.821	20090.84876
733.014	20393.40676
733.208	20397.46857
733.401	20474.64625
733.594	20293.89752
733.788	20165.9719
733.981	20369.03622
734.174	20186.27644
734.367	20505.11279
734.56	20547.76752
734.754	20586.36148
734.947	20344.66628
735.14	20159.88062
735.333	20261.4069
735.526	20409.65412
735.719	19741.70326
735.912	19818.82936
736.105	19847.24577
736.298	19979.18987
736.491	19672.70083
736.684	19707.20144
736.877	19589.49844
737.07	19843.18623
737.263	19709.23092
737.456	20332.48154
737.649	20324.35846
737.842	19459.63557
738.035	20092.87904
738.228	19969.0397
738.421	20029.94234
738.614	19958.88962
738.807	19733.58507
739	19672.70083
739.192	20115.21239
739.385	19885.81221
739.578	20174.09367
739.771	19796.50276
739.964	19492.09969
740.156	19770.11743
740.349	19626.02545
740.542	19488.04162
740.735	19656.46566
740.927	19940.61976
741.12	19695.02461
741.313	19731.55554
741.505	19664.58321
741.698	19743.73282
741.891	19508.33215
742.083	19794.47309
742.276	19902.05116
742.468	19835.06721
742.661	19490.07065
742.854	19362.24959
743.046	19565.14786
743.239	19628.05477
743.431	19670.67142
743.624	19479.92552
743.816	19658.49504
744.009	19447.4618
744.201	19504.27401
744.393	19230.38793
744.586	19684.87737
744.778	19157.36433
744.971	19709.23092
745.163	19628.05477
745.355	19396.73937
745.548	19264.87314
745.74	19463.69353
745.932	19283.13051
746.125	19745.76238
746.317	19094.48714
746.509	19041.75445
746.702	19453.54867
746.894	19001.19271
747.086	19128.96769
747.278	19201.98923
747.471	19425.14361
747.663	19479.92552
747.855	19569.20625
748.047	19471.80949
748.239	19589.49844
748.431	19242.55905
748.623	19206.04614
748.815	19090.43068
749.008	19167.50618
749.2	19589.49844
749.392	19538.76873
749.584	19244.58758
749.776	19110.71313
749.968	19307.47417
750.16	19017.41721
750.352	19193.87546
750.544	19524.56488
750.736	19321.67492
750.928	19323.70361
751.12	19007.27687
751.311	19015.38913
751.503	19173.59133
751.695	19175.61973
751.887	19114.76967
752.079	19583.41074
752.271	19015.38913
752.463	19270.95889
752.654	18674.72912
752.846	18924.12985
753.038	18763.93875
753.23	19035.67008
753.421	18832.87871
753.613	18709.19558
753.805	19076.2332
753.997	18873.43377
754.188	18749.7458
754.38	18628.09985
754.572	18790.2976
754.763	18626.07253
754.955	18384.84987
755.146	18889.65624
755.338	18755.82847
755.53	18790.2976
755.721	18486.1973
755.913	18822.74019
756.104	19027.55766
756.296	18699.05827
756.487	18713.25053
756.679	18759.8836
756.87	18622.01792
757.062	18778.13189
757.253	18644.31849
757.445	18419.30693
757.636	17959.29223
757.827	18340.26
758.019	18538.90175
758.21	18549.03752
758.401	18447.68415
758.593	18326.0727
758.784	17961.31832
758.975	17918.77123
759.167	17888.3814
759.358	17833.68167
759.549	17752.64963
759.74	17286.81694
759.932	17394.14623
760.123	17787.08758
760.314	17728.34107
760.505	18028.18117
760.696	17959.29223
760.888	18182.18323
761.079	18080.86374
761.27	17781.01022
761.461	17677.6998
761.652	17722.26401
761.843	17606.80549
762.034	17870.14788
762.225	17592.62711
762.416	17912.6932
762.607	17795.19077
762.798	17712.13564
762.989	17517.68688
763.18	17768.8556
763.371	17497.43351
763.562	17651.36716
763.753	17825.57822
763.944	17732.39247
764.135	17497.43351
764.326	17560.21998
764.517	17248.34246
764.708	17673.64859
764.899	17627.0606
765.089	16977.02541
765.28	16811.01946
765.471	17347.56833
765.662	17331.36769
765.853	17321.2424
766.043	17011.44348
766.234	17126.85098
766.425	17126.85098
766.615	17130.90053
766.806	17094.45498
766.997	17189.62028
767.187	17096.47971
767.378	17424.524
767.569	17280.74195
767.759	17280.74195
767.95	17432.62486
768.141	17072.18315
768.331	16972.97628
768.522	17031.68976
768.712	17189.62028
768.903	17193.67001
769.093	16954.75531
769.284	16827.21441
769.474	16760.41127
769.665	16566.0895
769.855	16746.24124
770.046	16616.6921
770.236	16489.17614
770.426	16434.52902
770.617	16361.66847
770.807	16345.47757
770.998	16647.05433
771.188	16618.71623
771.378	16614.66797
771.569	16491.20014
771.759	16319.16763
771.949	16256.4298
772.139	16594.42678
772.33	16339.40602
772.52	16321.19146
772.71	16557.99321
772.9	16357.62073
773.09	16394.05062
773.281	16394.05062
773.471	16600.49912
773.661	16098.58066
773.851	15758.62807
774.041	15940.74096
774.231	16298.92943
774.421	16272.62004
774.611	16290.8342
774.802	15610.92052
774.992	16027.75407
775.182	16250.35849
775.372	16226.0734
775.562	15944.78803
775.752	16371.78784
775.942	15912.41165
776.131	16029.77767
776.321	15487.49694
776.511	16013.58897
776.701	15813.26096
776.891	15782.90926
777.081	15420.72776
777.271	15635.20089
777.461	15772.79208
777.651	15847.65985
777.84	15568.43015
778.03	15833.49556
778.22	15355.98237
778.41	15616.9906
778.599	15386.33172
778.789	15742.4407
778.979	15799.0968
779.169	15728.2768
779.358	15372.16868
779.548	15782.90926
779.738	15675.66844
779.927	15513.80012
780.117	15608.89716
780.307	15432.86757
780.496	15619.01397
780.686	15621.03733
780.875	15264.93475
781.065	15473.33374
781.254	14882.53482
781.444	15143.53844
781.633	14852.18514
781.823	15145.56171
782.012	15479.40368
782.202	14971.5599
782.391	15169.84096
782.581	15194.1202
782.77	14688.29417
782.96	14925.02418
783.149	14858.25509
783.338	15054.51444
783.528	14738.87836
783.717	14641.75621
783.906	14718.64475
784.096	14441.43371
784.285	14870.39497
784.474	14920.97758
784.663	15078.79374
784.853	14564.86617
785.042	14775.29865
785.231	14566.88961
785.42	14542.60821
785.61	14704.48117
785.799	14848.13851
785.988	14676.15388
786.177	14257.28634
786.366	14607.35823
786.555	14516.30316
786.744	14795.53203
786.933	14485.95091
787.122	14607.35823
787.312	14722.69148
787.501	14441.43371
787.69	14489.99789
787.879	14487.9744
788.068	14099.43353
788.257	14069.07573
788.445	13963.83125
788.634	14427.269
788.823	14137.88602
789.012	14275.49935
789.201	13733.07787
789.39	13947.6392
789.579	14081.21891
789.768	14398.93936
789.957	14184.43274
790.145	14350.37355
790.334	14313.94856
790.523	14075.14733
790.712	13992.16695
790.9	14154.07631
791.089	13455.71477
791.278	13832.26586
791.467	13838.33837
791.655	13961.80725
791.844	13895.01386
792.033	13797.85451
792.221	13842.38669
792.41	13933.47101
792.599	13143.8482
792.787	13670.32245
792.976	13609.58842
793.164	13714.85887
793.353	13739.15081
793.541	13771.53937
793.73	13492.16044
793.918	13593.39216
794.107	13133.72092
794.295	13344.34524
794.484	13471.913
794.672	13386.86957
794.861	13257.26591
795.049	13149.92451
795.238	12998.00392
795.426	13218.78647
795.614	12961.53885
795.803	13050.67281
795.991	13042.57012
796.179	13318.01975
796.368	13036.49305
796.556	13544.80205
796.744	13180.30543
796.932	13168.15319
797.121	13068.90358
797.309	13214.73591
797.497	13030.41594
797.685	13184.35614
797.874	12908.86414
798.062	13239.03901
798.25	12890.62976
798.438	13111.44051
798.626	13425.34245
798.814	13133.72092
799.002	13166.1278
799.19	13295.74379
799.378	12969.64234
799.566	13131.69546
799.755	12995.97813
799.943	13125.61902
800.131	13368.64508
800.318	12985.84908
800.506	12779.1879
800.694	12890.62976
800.882	12892.65583
801.07	13123.59353
801.258	13192.45752
801.446	13214.73591
801.634	12848.08119
801.822	12860.23817
802.01	13002.05549
802.197	13435.46665
802.385	13091.18509
802.573	12969.64234
802.761	13068.90358
802.949	12921.02016
803.136	12957.48708
803.324	13226.88754
803.512	13180.30543
803.699	13099.28731
803.887	13014.21009
804.075	13482.03676
804.262	13004.08127
804.45	13164.1024
804.638	12811.60907
804.825	13125.61902
805.013	13109.41499
805.201	13299.794
805.388	12945.33162
805.576	12908.86414
805.763	12720.42083
805.951	12945.33162
806.138	12704.20837
806.326	12981.79743
806.513	12829.84535
806.701	12923.04614
806.888	12558.27901
807.075	12947.35755
807.263	12600.845
807.45	12860.23817
807.638	12677.86232
807.825	12995.97813
808.012	12815.66162
808.2	12995.97813
808.387	12844.02882
808.574	13030.41594
808.761	12858.21202
808.949	13022.31306
809.136	12767.02959
809.323	12799.4513
809.51	12894.68188
809.698	13044.5958
809.885	12995.97813
810.072	12965.59061
810.259	12918.99417
810.446	13056.74978
810.633	12910.89016
810.82	13176.2547
811.008	12977.74575
811.195	12965.59061
811.382	12842.00263
811.569	13064.85233
811.756	12791.34601
811.943	13220.81175
812.13	13182.33079
812.317	12842.00263
812.504	13261.31629
812.691	13255.24072
812.878	12823.76664
813.064	13190.43218
813.251	13010.15858
813.438	13200.55881
813.625	12696.102
813.812	12590.71049
813.999	12929.12406
814.186	13077.00601
814.372	12726.50041
814.559	12912.91617
814.746	12529.90014
814.933	12700.1552
815.12	12564.36003
815.306	12434.61902
815.493	12643.40828
815.68	12505.57441
815.866	12574.49495
816.053	12955.46118
816.24	12817.68788
816.426	12610.97936
816.613	13077.00601
816.799	12957.48708
816.986	13006.10704
817.173	12687.99554
817.359	12639.35475
817.546	12799.4513
817.732	12769.05599
817.919	13111.44051
818.105	12860.23817
818.292	12771.08238
818.478	12734.60643
818.665	12734.60643
818.851	12629.22082
819.037	12497.46562
819.224	12511.65593
819.41	12738.6594
819.597	12493.41119
819.783	12615.03306
819.969	12556.25198
820.156	12730.55343
820.342	12685.96891
820.528	12736.63292
820.714	12556.25198
820.901	12947.35755
821.087	12878.47327
821.273	12801.47761
821.459	12604.89876
821.646	12730.55343
821.832	12548.14384
822.018	12803.50391
822.204	12268.3484
822.39	12458.94749
822.576	12067.54282
822.762	12037.11127
822.948	12146.65677
823.134	12499.49283
823.32	11998.5621
823.507	12223.73119
823.693	12199.39305
823.879	12314.98998
824.065	12317.01779
824.25	12091.88681
824.436	12091.88681
824.622	12227.78744
824.808	12312.96216
824.994	12239.95603
825.18	12110.14408
825.366	12341.35097
825.552	12026.96703
825.738	12345.4064
825.923	12087.82956
826.109	12276.46025
826.295	12063.48538
826.481	12402.17958
826.667	12102.02982
826.852	12329.1845
827.038	12000.59108
827.224	12239.95603
827.409	11962.03919
827.595	11872.7499
827.781	11815.92107
827.966	11941.74756
828.152	11895.07371
828.338	11901.16185
828.523	11793.59365
828.709	11931.60144
828.894	11452.45893
829.08	11783.44447
829.266	11566.19927
829.451	11872.7499
829.637	11446.36485
829.822	11665.69812
830.008	11407.76701
830.193	11809.83188
830.378	11446.36485
830.564	11730.66528
830.749	11663.66775
830.935	11811.86162
831.12	11273.66251
831.305	11797.65326
831.491	11354.94316
831.676	11655.54618
831.861	11444.33348
832.047	11669.75884
832.232	11289.91994
832.417	11350.87951
832.602	11387.45093
832.788	11350.87951
832.973	11519.48808
833.158	11558.07594
833.343	11078.52142
833.528	11545.89067
833.714	11269.59806
833.899	11497.14618
834.084	11119.18387
834.269	11064.28854
834.454	10909.72528
834.639	10944.30426
834.824	11041.92151
835.009	11064.28854
835.194	10736.78032
835.379	11324.46481
835.564	10632.97212
835.749	10885.31461
835.934	10757.1312
836.119	11155.77641
836.304	10844.62648
836.489	10869.03991
836.674	10635.00788
836.859	11007.35166
837.044	10696.07498
837.228	11131.38177
837.413	10805.96845
837.598	10818.1767
837.783	10500.62103
837.968	10535.24106
838.152	10614.64972
838.337	10854.79894
838.522	10518.94974
838.707	10700.14573
838.891	10610.57794
839.076	10368.21614
839.261	10298.93614
839.445	10553.56782
839.63	10514.87678
839.815	10875.14301
839.999	10630.93634
840.184	10698.11036
840.368	10673.68498
840.553	10712.35769
840.737	10602.43424
840.922	10626.86476
841.106	10541.35009
841.291	10797.82938
841.475	10459.88688
841.66	10539.31376
841.844	10141.97965
842.029	10445.62872
842.213	10305.0497
842.397	10215.37199
842.582	10099.15915
842.766	10192.94844
842.951	9850.26788
843.135	10084.88427
843.319	9993.10062
843.504	10088.96288
843.688	9776.78283
843.872	9940.05682
844.056	10205.17967
844.241	9905.36902
844.425	9795.15592
844.609	9776.78283
844.793	9997.18051
844.977	9962.49963
845.161	9799.23866
845.346	10027.77784
845.53	9919.65274
845.714	10003.30024
845.898	9684.89896
846.082	9942.09715
846.266	10056.33245
846.45	9760.45017
846.634	9580.72617
846.818	9717.57232
847.002	9691.02551
847.186	9868.63612
847.37	9646.09422
847.554	9907.40959
847.738	9835.98064
847.922	9840.06278
848.106	9870.67697
848.29	9766.57503
848.473	9498.99344
848.657	9556.20902
848.841	9456.07354
849.025	9386.56907
849.209	9137.01331
849.392	9214.77059
849.576	9286.36756
849.76	9468.3371
849.944	9220.90828
850.127	9427.45633
850.311	9179.98748
850.495	9337.49573
850.678	9257.73124
850.862	9196.35661
851.046	9229.09163
851.229	9120.64022
851.413	8893.34865
851.596	9458.11751
851.78	8997.80674
851.964	9545.99286
852.147	9130.87353
852.331	9327.27093
852.514	9284.32221
852.698	8792.94318
852.881	8686.3427
853.065	8657.63407
853.248	8901.54311
853.431	8723.24848
853.615	8555.0734
853.798	8790.89364
853.982	8526.348
854.165	8710.94722
854.348	8698.64529
854.532	8671.98884
854.715	8520.19207
854.898	8628.92179
855.081	8555.0734
855.265	8686.3427
855.448	8458.62339
855.631	8608.41079
855.814	8495.56666
855.997	8468.88603
856.181	8212.17489
856.364	8300.5179
856.547	8366.23803
856.73	8343.64898
856.913	8466.83354
857.096	8532.50375
857.279	8169.01733
857.462	8450.41294
857.645	8407.30301
857.828	8676.09003
858.011	8099.12455
858.194	8343.64898
858.377	8062.11308
858.56	8345.70263
858.743	8060.0567
858.926	8152.57405
859.109	8115.57199
859.292	8259.43266
859.475	8074.45096
859.658	8429.88546
859.841	8132.01815
860.023	8146.40749
860.206	8014.81112
860.389	8045.66144
860.572	7909.88572
860.755	7860.49056
860.937	7736.95033
861.12	7743.12913
861.303	8055.94387
861.486	7951.03928
861.668	7677.21217
861.851	7823.43637
862.034	7613.33446
862.216	7732.83102
862.399	7495.82839
862.581	7508.20073
862.764	7522.63415
862.947	7675.15191
863.129	7844.02287
863.312	7660.72955
863.494	7673.09164
863.677	7924.2904
863.859	7765.78311
864.042	7718.4128
864.224	7386.50556
864.406	7590.66326
864.589	7074.70107
864.771	7239.95822
864.954	6901.02693
865.136	7297.76474
865.318	6944.46038
865.501	7279.18596
865.683	7171.80688
865.865	7211.04847
866.048	7256.47613
866.23	7580.35732
866.412	7074.70107
866.594	7138.75511
866.777	7035.43153
866.959	7138.75511
867.141	7074.70107
867.323	7147.01858
867.505	6985.81631
867.687	7047.83331
867.869	7002.35615
868.052	7109.83013
868.234	6766.52658
868.416	7208.98332
868.598	6886.54689
868.78	6946.52839
868.962	6876.20333
869.144	7006.49089
869.326	6944.46038
869.508	6971.34276
869.69	7097.43238
869.872	7229.63381
870.054	7173.87242
870.236	7386.50556
870.417	7012.69282
870.599	6921.71077
870.781	6845.16923
870.963	6853.44549
871.145	6723.05201
871.327	6915.50585
871.508	6749.96603
871.69	6733.40402
871.872	6745.82566
872.054	6958.93598
872.235	6459.9181
872.417	6716.84054
872.599	6517.96392
872.78	6532.47253
872.962	6710.62885
873.144	6575.99156
873.325	6395.63183
873.507	6737.54466
873.689	6567.70301
873.87	6617.42879
874.052	6522.10935
874.233	6725.12246
874.415	6586.35174
874.596	6851.37646
874.778	6495.16237
874.959	6625.71513
875.141	6491.01633
875.322	6648.50065
875.503	6542.83513
875.685	6909.30073
875.866	6497.23535
876.048	6826.54631
876.229	6493.08936
876.41	6569.77518
876.592	6507.59993
876.773	6634.0011
876.954	6302.2732
877.136	6783.08566
877.317	6339.62233
877.498	6544.90758
877.679	6555.26949
877.86	6716.84054
878.042	6356.21951
878.223	6685.78005
878.404	6544.90758
878.585	6673.35442
878.766	6337.54758
878.947	6493.08936
879.128	6393.55771
879.309	6441.25665
879.49	6337.54758
879.672	6673.35442
879.853	6298.12283
880.034	6410.15004
880.215	6559.41409
880.396	6683.70917
880.576	6345.84645
880.757	6546.98001
880.938	6298.12283
881.119	6435.03574
881.3	6534.5451
881.481	6836.8926
881.662	6642.2867
881.843	6965.13947
882.023	6687.85091
882.204	6760.31654
882.385	6559.41409
882.566	6712.69944
882.747	6609.14208
882.927	6708.55825
883.108	6478.57767
883.289	6476.50447
883.469	6424.66711
883.65	6741.68521
883.831	6604.99859
884.011	6932.05184
884.192	6832.75415
884.373	6896.88989
884.553	6478.57767
884.734	6768.59654
884.914	6760.31654
885.095	6760.31654
885.275	6522.10935
885.456	6774.8063
885.636	6646.42936
885.817	7008.55822
885.997	6876.20333
886.178	7058.16751
886.358	6600.85501
886.538	6818.26887
886.719	6770.66649
886.899	6948.59638
887.08	6799.64329
887.26	7229.63381
887.44	6611.21379
887.621	6700.27559
887.801	6337.54758
887.981	6855.51449
888.161	6700.27559
888.342	6604.99859
888.522	6544.90758
888.702	6816.19945
888.882	6671.2834
889.062	6992.01892
889.242	6687.85091
889.423	6981.68112
889.603	6592.56756
889.783	6847.23833
889.963	6468.21147
890.143	6789.29494
890.323	6646.42936
890.503	6793.43435
890.683	6592.56756
890.863	6847.23833
891.043	6826.54631
891.223	6942.39234
891.403	6791.36466
891.583	6691.99256
891.763	6563.5586
891.943	6623.64358
892.122	6410.15004
892.302	6766.52658
892.482	6420.51949
892.662	6503.45417
892.842	6190.18034
893.022	6443.33023
893.201	6165.26153
893.381	6650.57193
893.561	6495.16237
893.741	6580.1357
893.92	6430.88836
894.1	6517.96392
894.28	6208.86723
894.459	6428.81463
894.639	6293.97237
894.819	6053.08502
894.998	6347.92111
895.178	6356.21951
895.357	6177.72136
895.537	6391.48356
895.716	6414.29789
895.896	6372.8152
896.075	6254.5383
896.255	6451.62435
896.434	6397.70593
896.614	6478.57767
896.793	6144.49327
896.973	6310.57366
897.152	6048.92902
897.331	6279.44501
897.511	6285.67116
897.69	6256.61398
897.87	5878.45175
898.049	6246.23531
898.228	5857.65099
898.407	5988.65639
898.587	5678.66706
898.766	5886.77139
898.945	5809.8003
899.124	5816.0424
899.304	5682.83146
899.483	5803.55798
899.662	5622.43842
899.841	5747.36758
900.02	5532.85363
900.199	5653.67868
900.378	5416.11979
900.557	5593.27607
900.737	5353.55348
900.916	5559.942
901.095	5495.34009
901.274	5576.60979
901.453	5395.2667
901.632	5568.27608
901.811	5234.61938
901.989	5336.86556
902.168	5280.53278
902.347	5509.92959
902.526	4979.8043
902.705	5286.79282
902.884	5380.66814
903.063	5411.94936
903.242	5249.22942
903.42	5424.46036
903.599	5088.45623
903.778	5174.07992
903.957	5103.07767
904.135	5119.7865
904.314	4810.43412
904.493	4910.81978
904.672	4603.22364
904.85	4896.18349
905.029	4448.19594
905.207	4776.96056
905.386	4416.75669
905.565	4678.59845
905.743	4290.95074
905.922	4475.43929
906.1	4532.00975
906.279	4427.23699
906.457	4267.87789
906.636	4550.86299
906.814	4194.44708
906.993	4253.19382
907.171	4175.56067
907.35	4324.50661
907.528	4055.90723
907.707	4261.58485
907.885	3833.21628
908.063	3906.77142
908.242	3959.29574
908.42	4295.14553
908.598	3829.01239
908.777	4053.80744
908.955	3974.00028
909.133	4041.20829
909.311	3664.99983
909.49	3929.88368
909.668	3829.01239
909.846	4123.08945
910.024	3925.68163
910.202	4173.46207
910.38	4013.90757
910.559	4156.67254
910.737	4034.90843
910.915	4341.28248
911.093	3976.10085
911.271	4190.25025
911.449	3934.08564
911.627	4148.27728
911.805	3929.88368
911.983	4053.80744
912.161	4047.50796
912.339	4240.60664
912.517	4108.39517
912.695	4360.15367
912.872	4102.0973
913.05	4194.44708
913.228	4066.40586
913.406	4198.64383
913.584	4047.50796
913.762	4181.85633
913.939	3959.29574
914.117	4194.44708
914.295	3908.87263
914.473	4251.09601
914.65	4173.46207
914.828	4047.50796
915.006	4051.70764
915.184	4251.09601
915.361	3841.62382
915.539	4097.89862
915.716	4016.00775
915.894	3934.08564
916.072	3753.32897
916.249	3950.8927
916.427	3702.85933
916.604	4097.89862
916.782	3795.37846
916.959	4016.00775
917.137	3883.65672
917.314	4125.18855
917.492	3803.78741
917.669	4133.58475
917.847	3509.29108
918.024	3517.71036
918.201	3561.90678
918.379	3742.81538
918.556	3395.60245
918.733	3620.82262
918.911	3374.5433
919.088	3612.40697
919.265	3553.48904
919.442	3820.60438
919.62	3572.42854
919.797	3904.67018
919.974	3641.86043
920.151	3662.89634
920.328	3444.03178
920.506	3608.19903
920.683	3669.20674
920.86	3448.24258
921.037	3125.91642
921.214	3260.79394
921.391	3182.82608
921.568	3237.61669
921.745	3231.29527
921.922	3511.39593
922.099	3058.45285
922.276	3395.60245
922.453	3336.63243
922.63	3290.28932
922.807	2986.75535
922.984	3146.99545
923.161	2978.31919
923.338	3189.14864
923.514	2904.49267
923.691	3031.0412
923.868	2887.61552
924.045	3182.82608
924.222	2908.71182
924.399	3104.8358
924.575	2944.57217
924.752	3191.25613
924.929	2887.61552
925.105	3043.69305
925.282	2796.88527
925.459	2847.52862
925.635	2777.89197
925.812	2902.38308
925.989	2573.1192
926.165	2845.41864
926.342	2539.33105
926.518	2843.30864
926.695	2649.13126
926.871	2754.67645
927.048	2564.67244
927.224	2659.68723
927.401	2243.5662
927.577	2647.02003
927.754	2175.93624
927.93	2552.00196
928.107	2302.73493
928.283	2513.98799
928.459	2475.97032
928.636	2689.24224
928.812	2243.5662
928.988	2621.6843
929.165	2241.4529
929.341	2497.09169
929.517	2319.63893
929.693	2459.07241
929.87	2218.206
930.046	2249.90605
930.222	2068.13377
930.398	2353.44506
930.574	2150.57279
930.751	2245.67949
930.927	2199.18503
931.103	2330.20361
931.279	1992.02648
931.455	2258.35906
931.631	1884.19393
931.807	2082.93136
931.983	1903.22427
932.159	1953.96967
932.335	1761.54455
932.511	2099.84245
932.687	1638.88236
932.863	2023.73892
933.039	1719.24844
933.215	2144.23174
933.391	1854.59033
933.566	1837.67356
933.742	1611.38785
933.918	1753.08544
934.094	1463.33611
934.27	1617.73277
934.445	1526.78748
934.621	1723.47812
934.797	1270.86929
934.973	1465.45116
935.148	1249.71993
935.324	1446.41569
935.5	1234.91554
935.675	1347.0088
935.851	1122.83055
936.027	1122.83055
936.202	1017.10163
936.378	1110.1424
936.553	1067.84985
936.729	1160.89594
936.904	826.83082
937.08	909.27391
937.255	837.39972
937.431	805.69371
937.606	714.81528
937.782	790.89829
937.957	670.43995
938.133	712.70206
938.308	509.88883
938.483	556.35631
938.659	509.88883
938.834	585.92998
939.009	488.76953
939.185	438.08931
939.36	488.76953
939.535	476.09866
939.71	357.86432
939.886	514.11286
940.061	457.09336
940.236	482.43403
940.411	374.75181
940.586	429.64347
940.761	347.3102
940.937	444.42385
941.112	404.30748
941.287	383.19595
941.462	241.79366
941.637	419.08653
941.812	347.3102
941.987	366.30793
942.162	265.00332
942.337	347.3102
942.512	218.58633
942.687	231.24458
942.862	227.02509
943.037	239.6838
943.212	265.00332
943.386	227.02509
943.561	275.55393
943.736	256.56318
943.911	248.12334
944.086	315.65046
944.26	216.47669
944.435	315.65046
944.61	208.03833
944.785	216.47669
944.959	254.45319
945.134	262.89326
945.309	254.45319
945.483	214.36707
945.658	159.52406
945.833	281.88452
946.007	218.58633
946.182	220.69599
946.357	286.10501
946.531	298.76691
946.706	218.58633
946.88	300.87729
947.055	189.0532
947.229	212.25747
947.404	210.14789
947.578	283.99475
947.752	216.47669
947.927	275.55393
948.101	252.34322
948.276	408.52999
948.45	300.87729
948.624	353.64262
948.799	243.90353
948.973	302.98769
949.147	237.57397
949.321	307.20854
949.496	277.66411
949.67	349.42099
949.844	296.65654
950.018	307.20854
950.193	246.01343
950.367	252.34322
950.541	281.88452
950.715	269.22351
950.889	265.00332
951.063	332.53516
951.237	254.45319
951.411	286.10501
951.585	271.33363
951.759	275.55393
951.933	286.10501
952.107	294.5462
952.281	353.64262
952.455	302.98769
952.629	340.97794
952.803	368.41887
952.977	340.97794
953.151	250.23327
953.325	340.97794
953.499	315.65046
953.672	239.6838
953.846	326.20327
954.02	267.11341
954.194	307.20854
954.368	260.78321
954.541	281.88452
954.715	288.21528
954.889	208.03833
955.062	307.20854
955.236	366.30793
955.41	205.9288
955.583	241.79366
955.757	212.25747
955.93	305.0981
956.104	305.0981
956.278	395.86267
956.451	260.78321
956.625	241.79366
956.798	222.80567
956.972	343.08867
957.145	233.35436
957.319	370.52983
957.492	237.57397
957.665	298.76691
957.839	269.22351
958.012	233.35436
958.185	265.00332
958.359	332.53516
958.532	273.44377
958.705	311.42946
958.879	205.9288
959.052	372.64081
959.225	239.6838
959.398	273.44377
959.572	368.41887
959.745	336.75651
959.918	195.3814
960.091	292.43587
960.264	220.69599
960.438	218.58633
960.611	134.21663
960.784	281.88452
960.957	305.0981
961.13	317.76099
961.303	326.20327
961.476	307.20854
961.649	294.5462
961.822	214.36707
961.995	265.00332
962.168	243.90353
962.341	279.77431
962.514	260.78321
962.686	233.35436
962.859	315.65046
963.032	273.44377
963.205	262.89326
963.378	241.79366
963.551	222.80567
963.723	256.56318
963.896	347.3102
964.069	265.00332
964.242	248.12334
964.414	231.24458
964.587	269.22351
964.76	191.16258
964.932	326.20327
965.105	222.80567
965.278	212.25747
965.45	302.98769
965.623	324.09267
965.795	197.49084
965.968	243.90353
966.14	286.10501
966.313	307.20854
966.485	227.02509
966.658	233.35436
966.83	159.52406
967.003	248.12334
967.175	258.67319
967.348	248.12334
967.52	176.39736
967.692	235.46415
967.865	290.32557
968.037	351.5318
968.209	243.90353
968.382	239.6838
968.554	256.56318
968.726	180.61589
968.898	159.52406
969.071	182.72519
969.243	256.56318
969.415	231.24458
969.587	208.03833
969.759	199.6003
969.932	172.17891
970.104	180.61589
970.276	138.43433
970.448	180.61589
970.62	155.30595
970.792	199.6003
970.964	193.27198
971.136	155.30595
971.308	189.0532
971.48	210.14789
971.652	199.6003
971.824	136.32547
971.996	155.30595
972.168	66.74543
972.339	165.85139
972.511	224.91537
972.683	174.28813
972.855	146.86997
973.027	170.06972
973.199	92.04447
973.37	205.9288
973.542	218.58633
973.714	115.23808
973.886	132.10782
974.057	182.72519
974.229	123.67278
974.401	163.74226
974.572	186.94385
974.744	260.78321
974.915	246.01343
975.087	170.06972
975.259	205.9288
975.43	129.99903
975.602	197.49084
975.773	161.63315
975.945	172.17891
976.116	129.99903
976.288	180.61589
976.459	81.50281
976.63	172.17891
976.802	142.6521
976.973	104.6952
977.145	167.96055
977.316	208.03833
977.487	121.56407
977.659	136.32547
977.83	163.74226
978.001	165.85139
978.172	98.36974
978.344	94.15287
978.515	138.43433
978.686	157.41499
978.857	98.36974
979.028	125.7815
979.2	104.6952
979.371	146.86997
979.542	148.97893
979.713	98.36974
979.884	96.26129
980.055	102.58669
980.226	165.85139
980.397	62.52924
980.568	56.20513
980.739	92.04447
980.91	140.5432
981.081	121.56407
981.252	129.99903
981.423	77.2863
981.594	111.02086
981.765	96.26129
981.936	134.21663
982.106	172.17891
982.277	39.34183
982.448	96.26129
982.619	129.99903
982.79	45.6654
982.96	113.12946
983.131	125.7815
983.302	136.32547
983.472	113.12946
983.643	94.15287
983.814	155.30595
983.984	70.96171
984.155	138.43433
984.326	182.72519
984.496	96.26129
984.667	138.43433
984.837	47.77329
985.008	79.39455
985.178	83.6111
985.349	104.6952
985.519	106.80373
985.69	104.6952
985.86	70.96171
986.031	117.34672
986.201	96.26129
986.371	73.06989
986.542	79.39455
986.712	117.34672
986.882	79.39455
987.053	96.26129
987.223	54.09713
987.393	100.4782
987.563	163.74226
987.734	94.15287
987.904	94.15287
988.074	87.82774
988.244	11.94218
988.414	96.26129
988.585	92.04447
988.755	81.50281
988.925	113.12946
989.095	89.9361
989.265	138.43433
989.435	64.63732
989.605	35.12624
989.775	106.80373
989.945	115.23808
990.115	100.4782
990.285	41.44967
990.455	83.6111
990.625	30.91075
990.795	89.9361
990.965	62.52924
991.134	81.50281
991.304	92.04447
991.474	100.4782
991.644	43.55752
991.814	62.52924
991.984	115.23808
992.153	73.06989
992.323	92.04447
992.493	56.20513
992.662	92.04447
992.832	68.85356
993.002	75.17808
993.171	66.74543
993.341	37.23403
993.511	22.48004
993.68	100.4782
993.85	28.80304
994.019	79.39455
994.189	182.72519
994.358	79.39455
994.528	-47.05863
994.697	54.09713
994.867	155.30595
995.036	1.40492
995.206	79.39455
995.375	-0.70246
995.544	37.23403
995.714	104.6952
995.883	-0.70246
996.052	45.6654
996.222	92.04447
996.391	83.6111
996.56	73.06989
996.73	14.04971
996.899	85.71941
997.068	-38.63112
997.237	62.52924
997.406	-4.91714
997.576	33.01848
997.745	104.6952
997.914	54.09713
998.083	35.12624
998.252	62.52924
998.421	129.99903
998.59	58.31314
998.759	66.74543
998.928	33.01848
999.097	45.6654
999.266	-17.56062
999.435	37.23403
999.604	33.01848
999.773	45.6654
999.942	16.15725
1000.111	3.51233
1000.28	30.91075
1000.448	47.77329
1000.617	96.26129
1000.786	100.4782
1000.955	102.58669
1001.124	28.80304
1001.292	58.31314
1001.461	96.26129
1001.63	-2.80981
1001.798	28.80304
1001.967	5.61975
1002.136	5.61975
1002.304	81.50281
1002.473	30.91075
1002.642	96.26129
1002.81	56.20513
1002.979	92.04447
1003.147	75.17808
1003.316	22.48004
1003.484	-13.34623
1003.653	87.82774
1003.821	47.77329
1003.99	11.94218
1004.158	5.61975
1004.327	64.63732
1004.495	37.23403
1004.663	77.2863
1004.832	58.31314
1005	11.94218
1005.168	20.37242
1005.337	54.09713
1005.505	24.58768
1005.673	79.39455
1005.842	9.83468
1006.01	11.94218
1006.178	33.01848
1006.346	39.34183
1006.514	11.94218
1006.683	62.52924
1006.851	-0.70246
1007.019	28.80304
1007.187	70.96171
1007.355	30.91075
1007.523	20.37242
1007.691	20.37242
1007.859	-21.77492
1008.027	-17.56062
1008.195	16.15725
1008.363	11.94218
1008.531	43.55752
1008.699	132.10782
1008.867	20.37242
1009.035	20.37242
1009.203	37.23403
1009.37	22.48004
1009.538	81.50281
1009.706	33.01848
1009.874	20.37242
1010.042	-25.98912
1010.209	26.69535
1010.377	75.17808
1010.545	45.6654
1010.713	66.74543
1010.88	-42.84492
1011.048	3.51233
1011.216	30.91075
1011.383	45.6654
1011.551	77.2863
1011.718	70.96171
1011.886	58.31314
1012.054	66.74543
1012.221	1.40492
1012.389	22.48004
1012.556	39.34183
1012.724	28.80304
1012.891	1.40492
1013.058	96.26129
1013.226	45.6654
1013.393	96.26129
1013.561	37.23403
1013.728	22.48004
1013.895	45.6654
1014.063	11.94218
1014.23	9.83468
1014.397	70.96171
1014.565	30.91075
1014.732	20.37242
1014.899	28.80304
1015.066	64.63732
1015.233	-34.41722
1015.401	-4.91714
1015.568	39.34183
1015.735	24.58768
1015.902	5.61975
1016.069	98.36974
1016.236	22.48004
1016.403	9.83468
1016.57	62.52924
1016.737	20.37242
1016.904	70.96171
1017.071	7.72721
1017.238	-11.23899
1017.405	115.23808
1017.572	-53.37899
1017.739	54.09713
1017.906	11.94218
1018.073	89.9361
1018.24	-25.98912
1018.407	64.63732
1018.573	24.58768
1018.74	70.96171
1018.907	62.52924
1019.074	-17.56062
1019.241	39.34183
1019.407	22.48004
1019.574	-28.09618
1019.741	16.15725
1019.907	5.61975
1020.074	37.23403
1020.241	20.37242
1020.407	89.9361
1020.574	11.94218
1020.74	54.09713
1020.907	26.69535
1021.073	3.51233
1021.24	5.61975
1021.406	125.7815
1021.573	-30.20322
1021.739	87.82774
1021.906	41.44967
1022.072	30.91075
1022.239	117.34672
1022.405	45.6654
1022.571	-17.56062
1022.738	-42.84492
1022.904	45.6654
1023.07	-34.41722
1023.237	11.94218
1023.403	62.52924
1023.569	-19.66778
1023.735	39.34183
1023.902	58.31314
1024.068	14.04971
1024.234	-13.34623
1024.4	79.39455
1024.566	47.77329
1024.732	62.52924
1024.898	-0.70246
1025.065	33.01848
1025.231	-9.13173
1025.397	3.51233
1025.563	-23.88203
1025.729	24.58768
1025.895	5.61975
1026.061	-17.56062
1026.227	-57.59244
1026.392	60.42118
1026.558	-87.08375
1026.724	81.50281
1026.89	-23.88203
1027.056	20.37242
1027.222	79.39455
1027.388	-13.34623
1027.553	-9.13173
1027.719	18.26482
1027.885	3.51233
1028.051	54.09713
1028.216	7.72721
1028.382	62.52924
1028.548	54.09713
1028.713	28.80304
1028.879	-2.80981
1029.045	62.52924
1029.21	-2.80981
1029.376	16.15725
1029.541	-7.02445
1029.707	45.6654
1029.873	98.36974
1030.038	100.4782
1030.204	43.55752
1030.369	20.37242
1030.534	-63.91243
1030.7	68.85356
1030.865	-21.77492
1031.031	37.23403
1031.196	129.99903
1031.361	-34.41722
1031.527	28.80304
1031.692	20.37242
1031.857	9.83468
1032.023	62.52924
1032.188	-34.41722
1032.353	14.04971
1032.518	89.9361
1032.684	87.82774
1032.849	75.17808
1033.014	54.09713
1033.179	9.83468
1033.344	28.80304
1033.509	-44.95179
1033.674	24.58768
1033.839	37.23403
1034.004	-9.13173
1034.17	58.31314
1034.335	33.01848
1034.5	-47.05863
1034.664	73.06989
1034.829	49.88122
1034.994	47.77329
1035.159	30.91075
1035.324	73.06989
1035.489	20.37242
1035.654	28.80304
1035.819	45.6654
1035.984	138.43433
1036.148	92.04447
1036.313	16.15725
1036.478	37.23403
1036.643	66.74543
1036.807	66.74543
1036.972	-42.84492
1037.137	45.6654
1037.301	115.23808
1037.466	54.09713
1037.631	73.06989
1037.795	-13.34623
1037.96	106.80373
1038.124	14.04971
1038.289	47.77329
1038.454	-13.34623
1038.618	-4.91714
1038.783	-25.98912
1038.947	51.98916
1039.111	3.51233
1039.276	37.23403
1039.44	37.23403
1039.605	37.23403
1039.769	-4.91714
1039.933	28.80304
1040.098	54.09713
1040.262	-30.20322
1040.426	24.58768
1040.591	5.61975
1040.755	3.51233
1040.919	62.52924
1041.083	-11.23899
1041.248	11.94218
1041.412	73.06989
1041.576	-2.80981
1041.74	64.63732
1041.904	-28.09618
1042.068	58.31314
1042.232	66.74543
1042.397	20.37242
1042.561	39.34183
1042.725	5.61975
1042.889	-36.52418
1043.053	7.72721
1043.217	16.15725
1043.381	5.61975
1043.544	-38.63112
1043.708	7.72721
1043.872	39.34183
1044.036	-21.77492
1044.2	-19.66778
1044.364	24.58768
1044.528	11.94218
1044.691	16.15725
1044.855	-0.70246
1045.019	-21.77492
1045.183	24.58768
1045.346	-36.52418
1045.51	66.74543
1045.674	37.23403
1045.837	58.31314
1046.001	115.23808
1046.165	24.58768
1046.328	115.23808
1046.492	30.91075
1046.655	28.80304
1046.819	37.23403
1046.983	51.98916
1047.146	33.01848
1047.31	20.37242
1047.473	37.23403
1047.636	5.61975
1047.8	104.6952
1047.963	28.80304
1048.127	87.82774
1048.29	-34.41722
