Data from mixed_try1_USB4F045381__3__00068.txt Node

Date: Thu Apr 03 19:51:06 EDT 2025
User: mmckonesweet
Spectrometer: USB4F04538
Trigger mode: 4
Integration Time (sec): 2.700000E-3
Scans to average: 1
Electric dark correction enabled: true
Nonlinearity correction enabled: true
Boxcar width: 0
XAxis mode: Wavelengths
Number of Pixels in Spectrum: 3648
>>>>>Begin Spectral Data<<<<<
345.52	79.21886
345.736	79.21886
345.952	79.21886
346.168	-64.08798
346.384	41.27401
346.6	1.22931
346.816	41.27401
347.032	-13.52183
347.248	7.55158
347.464	-26.16471
347.68	7.55158
347.896	15.98162
348.112	-38.8067
348.328	-0.87807
348.544	-9.30734
348.76	-9.30734
348.975	24.41204
349.191	66.56975
349.407	47.59764
349.623	24.41204
349.839	18.08919
350.055	-7.20006
350.27	-21.95051
350.486	64.46165
350.702	1.22931
350.918	26.51971
351.133	3.33671
351.349	24.41204
351.565	37.05838
351.781	-38.8067
351.996	28.62739
352.212	-34.5928
352.428	32.84284
352.644	7.55158
352.859	91.86877
353.075	60.24551
353.291	-68.30117
353.506	66.56975
353.722	-49.34101
353.938	-36.69976
354.153	-21.95051
354.369	-17.73622
354.584	91.86877
354.8	-17.73622
355.016	-51.44779
355.231	-5.09275
355.447	-45.12736
355.662	24.41204
355.878	60.24551
356.093	7.55158
356.309	108.73657
356.524	15.98162
356.74	26.51971
356.955	41.27401
357.171	77.11062
357.386	-7.20006
357.602	85.54372
357.817	-47.2342
358.033	3.33671
358.248	-0.87807
358.464	15.98162
358.679	3.33671
358.895	83.43541
359.11	28.62739
359.325	62.35357
359.541	41.27401
359.756	75.0024
359.972	37.05838
360.187	34.9506
360.402	-7.20006
360.618	47.59764
360.833	15.98162
361.048	37.05838
361.264	-49.34101
361.479	41.27401
361.694	30.7351
361.909	-21.95051
362.125	51.8135
362.34	9.65906
362.555	-34.5928
362.77	102.41098
362.986	-43.0205
363.201	18.08919
363.416	77.11062
363.631	-13.52183
363.847	43.38186
364.062	15.98162
364.277	72.8942
364.492	-28.27177
364.707	18.08919
364.922	32.84284
365.138	24.41204
365.353	24.41204
365.568	51.8135
365.783	13.87408
365.998	18.08919
366.213	58.13747
366.428	64.46165
366.643	56.02946
366.858	28.62739
367.073	127.71452
367.288	53.92147
367.503	30.7351
367.718	-13.52183
367.933	51.8135
368.148	-7.20006
368.363	-15.62904
368.578	24.41204
368.793	49.70556
369.008	39.16618
369.223	18.08919
369.438	41.27401
369.653	11.76656
369.868	9.65906
370.083	142.47636
370.298	7.55158
370.513	-0.87807
370.728	-17.73622
370.943	18.08919
371.157	39.16618
371.372	24.41204
371.587	9.65906
371.802	-0.87807
372.017	62.35357
372.232	-19.84338
372.446	-13.52183
372.661	26.51971
372.876	136.14973
373.091	7.55158
373.306	-26.16471
373.52	53.92147
373.735	-26.16471
373.95	32.84284
374.165	-17.73622
374.379	58.13747
374.594	-43.0205
374.809	37.05838
375.023	-30.3788
375.238	28.62739
375.453	30.7351
375.667	58.13747
375.882	15.98162
376.097	102.41098
376.311	70.78603
376.526	34.9506
376.741	75.0024
376.955	53.92147
377.17	62.35357
377.384	9.65906
377.599	32.84284
377.813	68.67788
378.028	49.70556
378.242	87.65205
378.457	39.16618
378.672	41.27401
378.886	26.51971
379.101	-5.09275
379.315	11.76656
379.53	34.9506
379.744	32.84284
379.958	11.76656
380.173	108.73657
380.387	-5.09275
380.602	56.02946
380.816	41.27401
381.031	39.16618
381.245	24.41204
381.459	-34.5928
381.674	26.51971
381.888	26.51971
382.103	-13.52183
382.317	9.65906
382.531	-36.69976
382.746	49.70556
382.96	58.13747
383.174	51.8135
383.388	49.70556
383.603	13.87408
383.817	9.65906
384.031	24.41204
384.246	7.55158
384.46	18.08919
384.674	9.65906
384.888	49.70556
385.103	11.76656
385.317	58.13747
385.531	45.48974
385.745	11.76656
385.959	11.76656
386.174	85.54372
386.388	5.44413
386.602	18.08919
386.816	22.3044
387.03	104.51949
387.244	11.76656
387.458	28.62739
387.672	64.46165
387.887	-17.73622
388.101	7.55158
388.315	7.55158
388.529	43.38186
388.743	22.3044
388.957	77.11062
389.171	47.59764
389.385	66.56975
389.599	66.56975
389.813	49.70556
390.027	77.11062
390.241	-17.73622
390.455	7.55158
390.669	83.43541
390.883	18.08919
391.097	9.65906
391.311	-26.16471
391.525	66.56975
391.738	11.76656
391.952	43.38186
392.166	-24.05762
392.38	7.55158
392.594	32.84284
392.808	121.38835
393.022	89.7604
393.236	-0.87807
393.449	53.92147
393.663	39.16618
393.877	100.3025
394.091	20.19678
394.305	79.21886
394.518	39.16618
394.732	-30.3788
394.946	-15.62904
395.16	-13.52183
395.373	26.51971
395.587	32.84284
395.801	-0.87807
396.015	72.8942
396.228	58.13747
396.442	64.46165
396.656	93.97717
396.869	-30.3788
397.083	41.27401
397.297	83.43541
397.51	11.76656
397.724	87.65205
397.938	3.33671
398.151	108.73657
398.365	28.62739
398.578	7.55158
398.792	70.78603
399.005	49.70556
399.219	20.19678
399.433	34.9506
399.646	34.9506
399.86	9.65906
400.073	41.27401
400.287	93.97717
400.5	-7.20006
400.714	-61.98135
400.927	136.14973
401.141	20.19678
401.354	53.92147
401.567	32.84284
401.781	64.46165
401.994	28.62739
402.208	87.65205
402.421	7.55158
402.635	-7.20006
402.848	58.13747
403.061	51.8135
403.275	56.02946
403.488	45.48974
403.701	45.48974
403.915	3.33671
404.128	96.08559
404.341	96.08559
404.555	41.27401
404.768	7.55158
404.981	26.51971
405.195	37.05838
405.408	41.27401
405.621	11.76656
405.834	-19.84338
406.048	26.51971
406.261	108.73657
406.474	72.8942
406.687	18.08919
406.9	96.08559
407.114	81.32712
407.327	9.65906
407.54	32.84284
407.753	110.84515
407.966	13.87408
408.179	22.3044
408.392	43.38186
408.605	75.0024
408.819	91.86877
409.032	66.56975
409.245	53.92147
409.458	20.19678
409.671	66.56975
409.884	98.19403
410.097	87.65205
410.31	68.67788
410.523	11.76656
410.736	93.97717
410.949	43.38186
411.162	66.56975
411.375	125.60578
411.588	81.32712
411.801	-9.30734
412.014	123.49705
412.227	87.65205
412.44	66.56975
412.653	100.3025
412.865	68.67788
413.078	49.70556
413.291	41.27401
413.504	96.08559
413.717	85.54372
413.93	41.27401
414.143	102.41098
414.356	100.3025
414.568	142.47636
414.781	37.05838
414.994	110.84515
415.207	108.73657
415.42	104.51949
415.632	-47.2342
415.845	68.67788
416.058	100.3025
416.271	125.60578
416.483	127.71452
416.696	136.14973
416.909	-5.09275
417.121	24.41204
417.334	77.11062
417.547	70.78603
417.759	91.86877
417.972	28.62739
418.185	37.05838
418.397	51.8135
418.61	24.41204
418.823	106.62802
419.035	131.93208
419.248	60.24551
419.46	150.91217
419.673	85.54372
419.885	79.21886
420.098	51.8135
420.311	60.24551
420.523	144.58528
420.736	117.171
420.948	108.73657
421.161	68.67788
421.373	32.84284
421.586	104.51949
421.798	20.19678
422.01	104.51949
422.223	117.171
422.435	106.62802
422.648	3.33671
422.86	159.34831
423.073	159.34831
423.285	153.02117
423.497	70.78603
423.71	96.08559
423.922	144.58528
424.134	79.21886
424.347	129.82329
424.559	142.47636
424.771	108.73657
424.984	32.84284
425.196	131.93208
425.408	167.78478
425.621	93.97717
425.833	201.53399
426.045	150.91217
426.257	100.3025
426.47	150.91217
426.682	167.78478
426.894	136.14973
427.106	178.33085
427.318	102.41098
427.531	146.69422
427.743	209.9721
427.955	136.14973
428.167	182.54942
428.379	100.3025
428.591	96.08559
428.804	115.06236
429.016	134.0409
429.228	142.47636
429.44	165.67563
429.652	153.02117
429.864	167.78478
430.076	193.0962
430.288	201.53399
430.5	304.92223
430.712	203.64348
430.924	193.0962
431.136	184.65873
431.348	178.33085
431.56	199.42451
431.772	239.50798
431.984	260.60738
432.196	199.42451
432.408	250.05744
432.62	159.34831
432.832	252.16739
433.044	190.9868
433.256	195.20561
433.468	252.16739
433.679	241.61784
433.891	167.78478
434.103	262.71742
434.315	222.62986
434.527	277.48826
434.739	340.80204
434.95	250.05744
435.162	294.37034
435.374	239.50798
435.586	294.37034
435.798	209.9721
436.009	245.8376
436.221	239.50798
436.433	304.92223
436.645	190.9868
436.856	266.93757
437.068	298.59104
437.28	323.91679
437.491	315.47458
437.703	323.91679
437.915	380.90897
438.126	387.2422
438.338	300.70142
438.55	277.48826
438.761	243.72771
438.973	359.79929
439.184	285.92915
439.396	247.94751
439.608	328.13799
439.819	416.79924
440.031	262.71742
440.242	328.13799
440.454	355.57756
440.665	313.36408
440.877	404.13155
441.088	429.46752
441.3	433.6904
441.511	412.57661
441.723	355.57756
441.934	328.13799
442.146	427.3561
442.357	355.57756
442.569	459.02903
442.78	509.71283
442.991	454.80577
443.203	410.46532
443.414	389.35331
443.626	463.25235
443.837	437.91335
444.048	461.14068
444.26	429.46752
444.471	336.58062
444.682	507.60084
444.894	395.68674
445.105	340.80204
445.316	556.18028
445.528	421.02194
445.739	431.57895
445.95	497.04108
446.161	524.49719
446.373	617.44283
446.584	608.99218
446.795	547.73116
447.006	672.37686
447.217	528.72142
447.429	509.71283
447.64	507.60084
447.851	484.36986
448.062	615.33015
448.273	551.95569
448.484	475.92268
448.695	632.23195
448.907	541.39445
449.118	589.97895
449.329	505.48886
449.54	712.52596
449.751	516.0489
449.962	606.87955
450.173	674.48987
450.384	670.26386
450.595	792.83576
450.806	780.15429
451.017	708.29955
451.228	716.75241
451.439	752.679
451.65	771.70018
451.861	752.679
452.072	691.39435
452.283	729.43204
452.494	788.60856
452.705	775.92721
452.915	818.19972
453.126	894.29933
453.337	913.32592
453.548	898.52741
453.759	942.92406
453.97	771.70018
454.181	995.78135
454.391	898.52741
454.602	949.2667
454.813	949.2667
455.024	1074.01738
455.235	902.75551
455.445	911.21182
455.656	970.40932
455.867	1082.47579
456.078	1122.65432
456.288	1000.01012
456.499	1019.03987
456.71	1190.32703
456.921	1040.18461
457.131	1236.8542
457.342	1143.80159
457.553	1158.60493
457.763	1209.36068
457.974	1367.98279
458.184	1293.95762
458.395	1342.60252
458.606	1260.11833
458.816	1558.33664
459.027	1439.89428
459.237	1410.28358
459.448	1484.31036
459.659	1435.66417
459.869	1458.92975
460.08	1562.56667
460.29	1617.55653
460.501	1786.74526
460.711	1716.95736
460.922	1587.94675
461.132	1702.15338
461.343	1619.67149
461.553	1710.61282
461.764	1786.74526
461.974	1657.74055
462.184	1503.34579
462.395	1886.13222
462.605	2061.61567
462.816	2002.42128
463.026	1960.13642
463.236	1962.25072
463.447	2063.72965
463.657	1837.49734
463.867	2317.34988
464.078	2070.07157
464.288	2220.14328
464.498	2344.81769
464.709	2327.91462
464.919	2163.07853
465.129	2429.32337
465.339	2477.90649
465.55	2461.00867
465.76	2302.55884
465.97	2543.37875
466.18	2651.06655
466.391	2822.0321
466.601	2610.95126
466.811	2765.05328
467.021	2807.26077
467.231	2857.90247
467.441	2651.06655
467.651	2889.54941
467.862	2874.78124
468.072	3087.79446
468.282	3110.98448
468.492	2995.01552
468.702	3353.30689
468.912	3441.7509
469.122	3262.72529
469.332	3443.85633
469.542	3387.00351
469.752	3580.67026
469.962	3610.12768
470.172	3618.54341
470.382	3732.12607
470.592	3669.03146
470.802	3719.50853
471.012	4028.43339
471.222	4070.43019
471.432	4190.07538
471.642	4211.05871
471.852	4464.78689
472.062	4236.23591
472.272	4429.15832
472.482	4462.69126
472.691	4839.54441
472.901	4458.49995
473.111	4569.53988
473.321	4864.64194
473.531	4948.2766
473.741	4822.81089
473.95	5274.09863
474.16	4902.28208
474.37	5232.3582
474.58	5242.79419
474.79	5338.7778
474.999	5244.88131
475.209	5307.48424
475.419	5524.34428
475.628	5765.92619
475.838	5505.5876
476.048	5707.64238
476.258	5743.03118
476.467	6187.93086
476.677	6333.2251
476.886	6335.2999
477.096	6465.96539
477.306	6202.46545
477.515	6314.55083
477.725	6517.79119
477.935	6472.18525
478.144	6681.46569
478.354	6594.4668
478.563	7097.26018
478.773	7113.79036
478.982	7345.06381
479.192	7008.38595
479.401	7417.28025
479.611	7281.07832
479.82	7458.53483
480.03	7555.44909
480.239	7707.94177
480.449	7639.95265
480.658	7718.24114
480.868	7712.06158
481.077	8092.78508
481.287	7917.94561
481.496	8244.87975
481.705	8263.37033
481.915	8456.39976
482.124	8398.91953
482.333	8610.29104
482.543	8593.88103
482.752	8819.41482
482.961	9059.0607
483.171	9102.0486
483.38	8706.67579
483.589	9163.44672
483.799	9265.74292
484.008	9427.28598
484.217	9374.13124
484.426	9613.24197
484.636	9623.45553
484.845	9994.97058
485.054	9598.94232
485.263	9725.56989
485.472	9833.76946
485.682	10141.80974
485.891	9878.67012
486.1	9933.76572
486.309	10423.05199
486.518	10378.2333
486.727	10396.56898
486.936	10382.30799
487.146	10551.36188
487.355	10675.55087
487.564	10533.03499
487.773	10948.20266
487.982	10718.29391
488.191	11151.54134
488.4	11342.58277
488.609	11255.20277
488.818	11206.4243
489.027	11364.9328
489.236	11519.31883
489.445	11622.88923
489.654	11626.95032
489.863	12140.40246
490.072	11882.72809
490.281	11773.12593
490.49	11898.96337
490.698	12187.05456
490.907	12059.25885
491.116	12479.05154
491.325	12426.34037
491.534	12434.45007
491.743	12296.57038
491.952	12582.43386
492.16	12450.66916
492.369	12513.51416
492.578	12868.17387
492.787	13014.04128
492.996	12868.17387
493.204	13167.9844
493.413	12910.72132
493.622	13348.2265
493.831	13022.14424
494.039	13396.82541
494.248	12957.31825
494.457	13714.69017
494.665	13540.58407
494.874	13743.03073
495.083	13668.12933
495.291	14064.85933
495.5	13811.85531
495.709	14050.69215
495.917	13759.22506
496.126	14087.12182
496.335	13985.92639
496.543	14321.87441
496.752	14279.37803
496.96	14329.96888
497.169	14265.21239
497.377	14538.39267
497.586	14659.79816
497.794	14783.2234
498.003	14338.06331
498.211	14854.03985
498.42	14463.52377
498.628	14860.1098
498.837	14926.87886
499.045	15123.13712
499.254	15185.85852
499.462	15187.88179
499.671	15349.74391
499.879	15452.93202
500.087	15527.7948
500.296	15497.44493
500.504	15444.83879
500.713	15548.02813
500.921	15764.52973
501.129	15507.56154
501.338	15655.26601
501.546	16017.4675
501.754	15804.99852
501.962	15778.69376
502.171	15974.97256
502.379	16480.91151
502.587	15790.8344
502.795	16438.40824
503.004	16116.62488
503.212	16399.95367
503.42	16503.1755
503.628	16482.9355
503.837	16250.18984
504.045	16383.76249
504.253	16820.97259
504.461	16661.05486
504.669	16711.66013
504.877	16822.99696
505.085	16847.28962
505.294	17029.4964
505.502	17082.13794
505.71	17278.54821
505.918	16786.55864
506.126	17329.17387
506.334	17187.42668
506.542	17043.66894
506.75	16972.80756
506.958	17142.88051
507.166	17175.27759
507.374	17410.17886
507.582	17495.23941
507.79	17859.84944
507.998	17598.53475
508.206	17821.35769
508.414	17985.46279
508.622	17740.32648
508.83	17687.65908
509.037	17965.20166
509.245	17584.35646
509.453	18259.02328
509.661	17898.34243
509.869	18212.41198
510.077	18188.09381
510.285	17979.38442
510.492	18117.16884
510.7	18319.82358
510.908	18228.62438
511.116	18465.75813
511.324	18342.11787
511.531	18556.97727
511.739	18204.30586
511.947	18374.54674
512.155	18139.45907
512.362	18571.16762
512.57	18577.24925
512.778	18494.13659
512.985	18617.79438
513.193	18745.52174
513.401	18704.97168
513.608	19177.47909
513.816	18741.46667
514.024	18601.57614
514.231	18842.84834
514.439	18982.77145
514.646	18934.10038
514.854	18980.74344
515.061	19090.26166
515.269	19142.99688
515.477	19163.28039
515.684	19295.13321
515.892	19459.46649
516.099	19467.58242
516.307	19153.13859
516.514	19457.43752
516.722	19583.24164
516.929	19885.64305
517.136	19518.30848
517.344	19816.63051
517.551	19865.34474
517.759	20021.65259
517.966	19942.48056
518.173	19905.94179
518.381	20060.22589
518.588	20255.14581
518.796	20509.0058
519.003	20318.09697
519.21	20194.22917
519.418	20366.83613
519.625	20342.46625
519.832	20263.26831
520.039	20498.85014
520.247	20407.45394
520.454	21063.66243
520.661	20850.29645
520.868	20553.69193
521.076	21000.66395
521.283	20679.63645
521.49	20955.95775
521.697	20872.64695
521.904	21094.14697
522.112	20775.12118
522.319	21277.07346
522.526	20998.63181
522.733	21212.02917
522.94	20888.90217
523.147	21207.96404
523.354	21199.83383
523.561	21604.38986
523.768	21277.07346
523.975	21756.90143
524.183	21577.95676
524.39	21809.77722
524.597	21577.95676
524.804	21728.43093
525.011	21649.1243
525.218	21927.74031
525.425	22133.18938
525.632	21598.28985
525.838	21909.43484
526.045	22078.26358
526.252	22102.6747
526.459	22173.87691
526.666	22179.98017
526.873	22637.8184
527.08	22397.6848
527.287	22570.65739
527.494	22068.09243
527.701	22694.8065
527.907	22924.82182
528.114	22729.40776
528.321	22619.50138
528.528	22843.39546
528.735	23018.46883
528.941	22965.53704
529.148	22668.3474
529.355	22996.07433
529.562	22882.0723
529.768	23065.29498
529.975	22810.82644
530.182	22979.78768
530.388	22861.71592
530.595	23055.11523
530.802	23020.50471
531.008	23792.33518
531.215	23521.43074
531.422	23714.92851
531.628	23694.55904
531.835	23664.0054
532.042	23366.65249
532.248	24065.32898
532.455	23741.40926
532.661	23812.70607
532.868	23926.78839
533.074	24159.05494
533.281	24091.81616
533.487	23753.63131
533.694	23820.8545
533.9	24332.25937
534.107	23845.30009
534.313	24289.46588
534.52	24393.39494
534.726	24287.42813
534.933	24293.5414
535.139	24187.58139
535.345	24562.54883
535.552	24692.99262
535.758	25019.14537
535.965	25112.92526
536.171	24709.29881
536.377	24823.44645
536.584	24815.29279
536.79	24809.17758
536.996	25353.51239
537.203	24699.10742
537.409	24998.75907
537.615	25218.94299
537.821	24964.10289
538.028	25602.2858
538.234	25327.00556
538.44	25514.59991
538.646	25331.08351
538.853	25331.08351
539.059	25406.52711
539.265	25861.28614
539.471	26004.05517
539.677	25716.48686
539.883	25979.57985
540.09	25912.27406
540.296	26065.24461
540.502	26228.42413
540.708	25755.23503
540.914	26165.19075
541.12	26218.22508
541.326	26650.70034
541.532	26175.38957
541.738	26361.01548
541.944	26083.60175
542.15	26597.65709
542.356	26603.77741
542.562	26673.14202
542.768	26316.13762
542.974	26418.1339
543.18	26373.25504
543.386	26620.09834
543.592	26687.42319
543.798	26962.85984
544.004	26891.4478
544.21	26926.13343
544.415	26830.23888
544.621	27524.01213
544.827	26983.26359
545.033	27052.63741
545.239	26989.38475
545.445	27740.33649
545.651	27415.85513
545.856	27387.28595
546.062	27615.84628
546.268	27401.57051
546.474	26858.80288
546.679	27024.07153
546.885	26968.98095
547.091	27244.44381
547.297	26940.41587
547.502	27505.6456
547.708	27479.11635
547.914	27748.49993
548.119	27950.55122
548.325	27599.52003
548.531	27017.9503
548.736	27713.80541
548.942	27446.46524
549.147	27336.27017
549.353	28089.34042
549.559	28362.85179
549.764	27866.87203
549.97	27919.93666
550.175	28309.78089
550.381	28685.37509
550.586	28209.76464
550.792	28711.91299
550.997	28489.40841
551.203	28536.35787
551.408	28450.62449
551.614	28618.01045
551.819	28854.8124
552.025	29007.92456
552.23	28595.55582
552.435	28816.02491
552.641	28793.56917
552.846	28881.35142
553.052	29401.96007
553.257	29256.99949
553.462	28936.47149
553.668	29457.08731
553.873	29483.63034
554.078	29105.91941
554.283	29142.66809
554.489	29571.42776
554.694	29608.18076
554.899	29399.91833
555.105	28881.35142
555.31	29338.66677
555.515	29340.70847
555.72	29855.25168
555.925	29612.26445
556.131	30116.63365
556.336	29397.8766
556.541	29616.34814
556.746	29504.04817
556.951	29959.39384
557.156	29695.981
557.361	29932.84752
557.567	29941.0156
557.772	30200.36154
557.977	29947.14167
558.182	30045.16017
558.387	30210.57239
558.592	30022.69736
558.797	29947.14167
559.002	30492.40383
559.207	30653.75281
559.412	30320.8515
559.617	29655.14343
559.822	30275.92256
560.027	30012.48704
560.232	30339.23169
560.437	30392.33058
560.642	30623.11631
560.847	30512.82731
561.051	30729.32411
561.256	30271.83813
561.461	30386.20374
561.666	30490.36149
561.871	30843.70578
562.076	30757.91913
562.281	30431.13414
562.485	30394.37286
562.69	30602.69214
562.895	30296.34473
563.1	30518.95438
563.305	30735.45159
563.509	30894.77041
563.714	30880.47223
563.919	31321.70615
564.123	31268.59094
564.328	31039.79878
564.533	31115.37982
564.737	31178.70605
564.942	31113.33707
565.147	31650.63634
565.351	31732.36498
565.556	31293.10552
565.761	31575.03985
565.965	31481.05826
566.17	31397.29503
566.374	31636.33412
566.579	31920.35185
566.784	31734.40823
566.988	31552.56566
567.193	31546.43638
567.397	31417.72483
567.602	31321.70615
567.806	31356.43591
568.011	31650.63634
568.215	31942.8296
568.42	31822.26979
568.624	31857.0067
568.828	32245.28068
569.033	31734.40823
569.237	32322.94431
569.442	32151.27088
569.646	31432.02579
569.85	32165.57644
570.055	32061.3525
570.259	31908.09135
570.463	32744.01913
570.668	32282.06834
570.872	32047.04767
571.076	32145.13996
571.281	32104.26761
571.485	32523.24928
571.689	32314.76905
571.893	32194.18786
572.098	32715.39924
572.302	32727.66484
572.506	32672.4703
572.71	32380.17213
572.914	32433.31379
573.119	32419.00627
573.323	32680.64715
573.527	32188.0568
573.731	32701.08947
573.935	32893.25931
574.139	32762.41788
574.343	32500.76499
574.547	32925.9713
574.751	33132.48135
574.955	32840.10373
575.159	32788.99421
575.364	32791.03856
575.568	33422.87035
575.772	33445.36774
575.976	32952.55028
576.18	33187.69172
576.383	33332.8844
576.587	33101.8098
576.791	33557.86025
576.995	33443.32251
577.199	33208.14052
577.403	32905.52623
577.607	33608.99633
577.811	33725.59406
578.015	32970.95137
578.219	33864.7071
578.422	33574.22358
578.626	33551.72406
578.83	33345.15487
579.034	33359.47056
579.238	33956.77585
579.442	34007.92821
579.645	33801.28599
579.849	33936.31552
580.053	34108.19331
580.257	33748.09659
580.46	34288.28342
580.664	34118.42493
580.868	33848.34005
581.071	34623.9862
581.275	34525.72051
581.479	34337.40399
581.682	33480.13716
581.886	34208.46718
582.09	34210.51368
582.293	34470.4502
582.497	34294.42337
582.7	34755.02215
582.904	34650.60147
583.107	34759.1173
583.311	34206.42068
583.515	34519.57922
583.718	34609.65519
583.922	35047.8704
584.125	34368.10549
584.329	34353.77802
584.532	34793.92682
584.735	35193.30543
584.939	34798.02214
585.142	34990.52222
585.346	34806.21284
585.549	34705.88162
585.753	35070.40104
585.956	35150.28695
586.159	35109.31892
586.363	35496.5446
586.566	35137.99634
586.769	34755.02215
586.973	34673.12264
587.176	35137.99634
587.379	35121.60913
587.582	35349.00922
587.786	35185.11127
587.989	35541.63014
588.192	35094.98056
588.395	35566.22332
588.599	35683.05125
588.802	35463.75669
589.005	35228.13147
589.208	35961.86988
589.411	35906.50799
589.615	36013.1346
589.818	35961.86988
590.021	35711.74848
590.224	35801.9467
590.427	35658.45446
590.63	35863.45158
590.833	35998.78012
591.036	35730.19725
591.239	35826.54805
591.442	35545.72895
591.645	36058.25053
591.848	36624.49822
592.051	36370.03891
592.254	35982.37534
592.457	36080.80955
592.66	36437.74842
592.863	36491.10012
593.066	36484.94393
593.269	36612.18341
593.472	36406.97053
593.675	37065.93789
593.878	36907.80471
594.081	36573.18804
594.284	36675.81247
594.486	36720.9724
594.689	36515.72542
594.892	35988.52709
595.095	36324.90299
595.298	36503.41265
595.5	36263.3588
595.703	37608.43389
595.906	37349.45094
596.109	36655.28628
596.311	36901.6445
596.514	36930.39264
596.717	37600.21034
596.92	37703.01358
597.122	37462.48427
597.325	37113.18054
597.528	37302.18914
597.73	37392.60645
597.933	37203.56832
598.136	37460.42891
598.338	36987.89298
598.541	37483.03822
598.743	37183.02442
598.946	37324.79212
599.148	37248.76744
599.351	36579.34505
599.554	37203.56832
599.756	37035.12948
599.959	37783.21373
600.161	37832.57369
600.363	37501.53743
600.566	37834.63045
600.768	38151.46963
600.971	37970.3948
601.173	37993.02565
601.376	38567.36837
601.578	38038.29033
601.78	38089.73233
601.983	37731.80199
602.185	37801.72318
602.388	37517.98169
602.59	37898.39415
602.792	37861.36912
602.995	37345.34107
603.197	37690.67616
603.399	37721.52024
603.601	37861.36912
603.804	37314.51793
604.006	37873.71051
604.208	37793.49668
604.41	37711.23868
604.613	37939.53616
604.815	37740.02754
605.017	38223.50607
605.219	37552.92737
605.421	37086.47771
605.623	37768.81795
605.826	38254.38202
606.028	37717.40759
606.23	37999.19787
606.432	38065.03952
606.634	38077.38578
606.836	38196.74847
607.038	38567.36837
607.24	38419.08646
607.442	38077.38578
607.644	37978.62409
607.846	38934.1552
608.048	38513.81682
608.25	39140.34489
608.452	38950.64689
608.654	38744.54372
608.856	38688.91168
609.058	38579.72727
609.26	38954.7699
609.462	38738.36205
609.664	38412.90904
609.866	38480.86502
610.067	38207.03968
610.269	38425.26396
610.471	38081.50126
610.673	38816.66928
610.875	38439.67843
611.077	38876.43903
611.278	38526.17434
611.48	38824.91292
611.682	38295.55294
611.884	38672.42938
612.085	38464.38996
612.287	38901.17364
612.489	38577.66743
612.69	38719.81754
612.892	38791.93924
613.094	38536.47251
613.295	38507.63819
613.497	38932.09379
613.699	38701.27378
613.9	38606.50601
614.102	38771.33189
614.304	38213.21451
614.505	38513.81682
614.707	38818.73017
614.908	37953.93663
615.11	38441.73768
615.311	38229.68111
615.513	38178.22481
615.714	38312.02228
615.916	38950.64689
616.117	38903.23491
616.319	38888.80617
616.52	38561.18904
616.722	38684.79105
616.923	38540.59184
617.124	38524.11473
617.326	38052.69356
617.527	38853.76683
617.729	39016.61967
617.93	38338.78612
618.131	38730.11996
618.333	38629.16613
618.534	38563.2488
618.735	38794.00003
618.937	38938.27807
619.138	38950.64689
619.339	38647.70703
619.54	38930.03238
619.742	39148.59447
619.943	39280.60881
620.144	39245.53861
620.345	38843.46165
620.546	38592.0865
620.748	39299.17653
620.949	38637.40644
621.15	38882.62256
621.351	38750.72547
621.552	38561.18904
621.753	38406.7317
621.954	39002.18729
622.155	38509.69772
622.356	39144.46966
622.558	39125.90851
622.759	39061.98159
622.96	38594.1464
623.161	38622.98599
623.362	38740.4226
623.563	39274.41975
623.764	39084.66428
623.965	39394.09071
624.166	38686.85136
624.366	38930.03238
624.567	38862.01113
624.768	38674.48964
624.969	38555.00978
625.17	38721.87801
625.371	39028.99064
625.572	38758.96793
625.773	38952.70839
625.973	39245.53861
626.174	38606.50601
626.375	39010.43431
626.576	39200.15783
626.777	39538.56578
626.977	39130.03314
627.178	39404.40874
627.379	39037.23815
627.58	38993.94043
627.78	39033.11438
627.981	39262.04188
628.182	39536.50151
628.382	39189.84467
628.583	39482.83386
628.784	39156.8442
628.984	38897.05111
629.185	38942.40097
629.386	38478.8056
629.586	38963.01605
629.787	38853.76683
629.987	38816.66928
630.188	38728.05945
630.388	38767.21053
630.589	38944.46244
630.79	39712.00135
630.99	39794.6152
631.191	39650.0518
631.391	39513.79513
631.591	39121.78391
631.792	39425.04553
631.992	39519.98766
632.193	39647.98697
632.393	38946.52391
632.594	38890.86739
632.794	39534.43724
632.994	39309.49228
633.195	39383.77294
633.395	39656.24633
633.595	39922.69964
633.796	39904.10423
633.996	39852.4548
634.196	39602.56338
634.397	39933.03079
634.597	39513.79513
634.797	40096.2982
634.997	39606.6926
635.198	39373.45541
635.398	39458.06647
635.598	39734.71851
635.798	39654.18148
635.998	39544.75867
636.199	39482.83386
636.399	39701.67578
636.599	39530.30874
636.799	39835.92837
636.999	39313.61865
637.199	39453.93871
637.399	39817.33693
637.599	39645.92215
637.799	39193.96991
637.999	39722.32718
638.199	40263.76858
638.399	40172.7882
638.599	39515.8593
638.799	40195.53132
638.999	40168.65322
639.199	40166.58575
639.399	39922.69964
639.599	40131.44042
639.799	39297.11342
639.999	40147.97901
640.199	39581.91793
640.399	40114.90251
640.599	39016.61967
640.799	39995.02324
640.998	39897.90595
641.198	39709.93621
641.398	39720.26199
641.598	39222.84763
641.798	39553.016
641.997	39524.11606
642.197	39724.39237
642.397	39559.2091
642.597	39999.15641
642.796	39420.91809
642.996	39794.6152
643.196	40230.68237
643.395	39780.15658
643.595	40214.14031
643.795	39899.97204
643.994	40127.30588
644.194	40178.99074
644.394	40303.0621
644.593	39825.59968
644.793	39765.69847
644.992	39654.18148
645.192	40104.56667
645.392	39821.46828
645.591	39588.11146
645.791	40247.22513
645.99	39666.57077
646.19	39990.89012
646.389	40098.3653
646.589	40441.65514
646.788	40344.42797
646.987	39763.63306
647.187	40365.11256
647.386	40220.3435
647.586	40528.55976
647.785	40284.44889
647.984	40588.57687
648.184	40652.74356
648.383	40638.25336
648.582	40445.79301
648.782	40249.29302
648.981	40427.17295
649.18	40638.25336
649.38	41027.61374
649.579	40495.45092
649.778	40704.49883
649.977	40924.02061
650.177	40716.92115
650.376	40462.34493
650.575	40443.72407
650.774	40400.27889
650.973	40234.81799
651.173	39966.09224
651.372	40059.09217
651.571	40797.67626
651.77	40195.53132
651.969	40102.49954
652.168	40218.27576
652.367	40088.02989
652.566	40828.74057
652.765	40667.23432
652.964	40890.87695
653.163	41220.37501
653.362	40959.23901
653.561	40810.10167
653.76	40584.43745
653.959	40296.8576
654.158	40843.23813
654.357	40555.46281
654.556	39990.89012
654.755	41154.03702
654.954	40536.83742
655.153	40203.80187
655.352	40092.16402
655.551	40518.21294
655.749	40837.02482
655.948	40950.95202
656.147	40911.59139
656.346	40516.14361
656.545	40505.79713
656.743	40632.04344
656.942	40789.39288
657.141	40596.85583
657.34	40485.10499
657.538	40578.22842
657.737	40501.65861
657.936	40656.88372
658.135	40408.55378
658.333	40174.8557
658.532	40785.25126
658.731	40832.88267
658.929	40642.39336
659.128	40497.52014
659.326	40625.83362
659.525	40926.09219
659.724	40456.13788
659.922	40243.08937
660.121	40692.07691
660.319	40538.90687
660.518	39959.89302
660.716	40861.87868
660.915	40712.78033
661.113	40897.09116
661.312	40534.76799
661.51	41307.4621
661.709	41064.91442
661.907	41060.76971
662.105	40646.5334
662.304	40924.02061
662.502	41025.54159
662.701	41131.23614
662.899	41019.32522
663.097	41205.86253
663.296	40839.09591
663.494	41183.0584
663.692	40350.63323
663.891	40298.92575
664.089	40038.42365
664.287	40532.69857
664.485	40474.75934
664.684	41071.13157
664.882	41139.52721
665.08	40756.26121
665.278	40195.53132
665.476	40671.37464
665.675	40690.00664
665.873	40168.65322
666.071	40381.66102
666.269	40474.75934
666.467	40416.82886
666.665	40884.66284
666.863	40176.92321
667.061	40346.49638
667.259	39920.63344
667.457	40791.46371
667.655	40046.69093
667.853	40286.51698
668.051	40791.46371
668.249	40656.88372
668.447	40439.58622
668.645	40584.43745
668.843	40278.24468
669.041	39753.3062
669.239	39495.2181
669.437	40083.8958
669.635	40553.39328
669.833	39926.83207
670.031	39266.1678
670.229	38950.64689
670.426	39902.03813
670.624	39332.18779
670.822	39257.916
671.02	39776.02564
671.218	39966.09224
671.415	39724.39237
671.613	39451.87485
671.811	39850.38896
672.009	39643.85735
672.206	39643.85735
672.404	39678.96044
672.602	39831.79686
672.799	40030.15655
672.997	40420.96646
673.195	40075.62775
673.392	40379.59242
673.59	39802.8775
673.788	39928.8983
673.985	40125.23862
674.183	40191.39611
674.38	39976.42451
674.578	40634.1134
674.775	40023.95633
674.973	40090.09695
675.17	39619.08048
675.368	39198.09518
675.565	39740.91431
675.763	40166.58575
675.96	40102.49954
676.158	39945.42852
676.355	39790.48412
676.553	40692.07691
676.75	39755.37156
676.947	39947.49484
677.145	40059.09217
677.342	39526.18028
677.539	39255.85308
677.737	39879.31169
677.934	39833.86261
678.131	39654.18148
678.329	39790.48412
678.526	40106.63382
678.723	39941.2959
678.92	39681.02542
679.118	39101.16151
679.315	39214.59666
679.512	38857.88896
679.709	39652.11663
679.906	39000.12556
680.104	40038.42365
680.301	39614.95114
680.498	38616.80593
680.695	39132.09547
680.892	39396.1543
681.089	39276.48276
681.286	38682.73075
681.483	38182.34112
681.68	38637.40644
681.877	38849.64473
682.075	39272.35674
682.272	38944.46244
682.469	38645.6469
682.665	38744.54372
682.862	38204.98142
683.059	38954.7699
683.256	38639.46654
683.453	38713.63621
683.65	38303.78754
683.847	38474.6868
684.044	38544.71121
684.241	38458.21196
684.438	38930.03238
684.635	38917.66412
684.831	38649.76718
685.028	38942.40097
685.225	39006.31078
685.422	38633.28626
685.619	38585.90685
685.815	37871.65359
686.012	38145.29556
686.209	37888.10916
686.405	38872.31673
686.602	38028.00255
686.799	38021.82998
686.996	38081.50126
687.192	37585.81944
687.389	37746.19678
687.586	37746.19678
687.782	37824.34671
687.979	38023.88749
688.175	37363.83575
688.372	37390.55135
688.568	37672.17056
688.765	37902.50821
688.962	37824.34671
689.158	37993.02565
689.355	38221.44774
689.551	38266.73294
689.748	37836.68722
689.944	37715.35128
690.14	37509.7595
690.337	37347.396
690.533	37384.3861
690.73	37020.75276
690.926	37616.65755
691.123	37355.61582
691.319	37719.46391
691.515	37631.04927
691.712	37431.65475
691.908	37080.31569
692.104	37000.21519
692.301	37230.27647
692.497	36992.00035
692.693	37409.04751
692.889	37485.09366
693.086	37746.19678
693.282	37554.98307
693.478	36961.19572
693.674	36382.34923
693.87	36259.25605
694.067	37394.66156
694.263	37162.48124
694.459	37443.98635
694.655	37532.37082
694.851	36932.44613
695.047	37012.53765
695.243	37203.56832
695.439	36550.61284
695.635	36916.01841
695.831	36782.55931
696.027	36562.92649
696.224	36150.5419
696.42	36606.02609
696.615	36932.44613
696.811	36866.73786
697.007	36665.54929
697.203	36091.06388
697.399	36144.38877
697.595	35871.65261
697.791	35832.69852
697.987	36105.42019
698.183	36532.1428
698.379	36638.8658
698.575	37026.91417
698.77	36423.38523
698.966	36640.91833
699.162	36220.28111
699.358	36078.7587
699.554	36060.30132
699.749	36121.82776
699.945	35754.79631
700.141	36062.35212
700.337	36413.12599
700.532	36304.38765
700.728	36285.92437
700.924	36564.97879
701.119	36070.55536
701.315	35760.94619
701.511	35834.74868
701.706	36402.86692
701.902	35890.10526
702.097	36072.60619
702.293	36296.18169
702.489	35937.26409
702.684	35927.01192
702.88	35937.26409
703.075	35424.82274
703.271	35978.2742
703.466	36109.52205
703.662	36263.3588
703.857	35890.10526
704.053	35980.32477
704.248	36337.21249
704.443	36277.71862
704.639	35799.89662
704.834	35875.75316
705.03	35789.64631
705.225	35709.69864
705.42	35664.60358
705.616	35717.89802
705.811	35732.24715
706.006	35881.90403
706.202	35847.04979
706.397	35730.19725
706.592	35988.52709
706.787	35965.97093
706.983	35517.03772
707.178	35875.75316
707.373	35064.25626
707.568	35242.47201
707.763	34884.02794
707.959	34853.31069
708.154	34836.92856
708.349	34456.12134
708.544	34798.02214
708.739	34603.5134
708.934	34648.55412
709.129	34984.37799
709.324	34841.02407
709.519	35047.8704
709.714	34935.22559
709.909	34836.92856
710.104	34562.56903
710.299	34296.47003
710.494	34556.42752
710.689	35097.02888
710.884	34836.92856
711.079	35111.36728
711.274	34927.03377
711.469	35986.4765
711.664	34957.75344
711.859	35025.34033
712.054	34552.3332
712.249	35021.24401
712.443	34464.30924
712.638	34736.59416
712.833	34102.05438
713.028	34669.02785
713.223	34316.93682
713.417	34673.12264
713.612	34130.703
713.807	34548.23889
714.002	34560.52186
714.196	34626.0335
714.391	34343.54422
714.586	34830.78534
714.78	34818.49901
714.975	34497.06146
715.17	34382.43315
715.364	35570.32225
715.559	34701.78669
715.754	34384.47998
715.948	34449.98047
716.143	34243.25816
716.337	34102.05438
716.532	34454.07438
716.726	34757.06972
716.921	34093.86919
717.115	34257.58418
717.31	34089.77662
717.504	34435.65189
717.699	34423.3704
717.893	34169.58442
718.088	33917.90152
718.282	33600.81442
718.476	33373.78639
718.671	33486.27303
718.865	33461.72971
719.059	33551.72406
719.254	33907.67164
719.448	33895.3959
719.642	33498.54486
719.837	32803.30472
720.031	33308.34377
720.225	32932.10487
720.419	33443.32251
720.614	33212.23031
720.808	33412.64438
721.002	32848.2814
721.196	32946.41663
721.39	33273.5786
721.585	33296.07361
721.779	33938.36154
721.973	33197.91608
722.167	32200.31893
722.361	32717.4435
722.555	32791.03856
722.749	32795.12727
722.943	32831.92611
723.137	32510.98509
723.331	32811.48221
723.525	33030.24524
723.719	33126.34699
723.913	33161.1087
724.107	32600.92441
724.301	32786.94987
724.495	32388.34767
724.689	32731.7534
724.883	32265.71818
725.077	32831.92611
725.271	33091.58609
725.465	32846.23698
725.659	32654.0725
725.853	32527.33736
726.046	32521.20524
726.24	32251.41191
726.434	32059.30895
726.628	32762.41788
726.822	32114.48562
727.015	32613.18921
727.209	32069.52674
727.403	32447.62142
727.596	32874.85911
727.79	32733.79768
727.984	32737.88625
728.177	33093.63083
728.371	32443.53351
728.565	32253.45566
728.758	32186.01312
728.952	32494.63297
729.146	32087.91889
729.339	32374.0405
729.533	32586.61558
729.726	32535.51355
729.92	32727.66484
730.113	32705.17796
730.307	32633.63074
730.5	32533.4695
730.694	32617.2775
730.887	32378.12825
731.081	32214.62483
731.274	32341.33878
731.468	31777.31695
731.661	31971.43798
731.854	31993.91625
732.048	32112.44201
732.241	32020.48179
732.435	32312.72524
732.628	32643.85159
732.821	32237.10574
733.014	32455.79725
733.208	31951.00338
733.401	32175.79475
733.594	32087.91889
733.788	32118.57284
733.981	32300.46242
734.174	32741.97483
734.367	32261.63067
734.56	31675.15464
734.754	32014.35125
734.947	31916.26501
735.14	31951.00338
735.333	31793.66333
735.526	31526.00553
735.719	31227.73381
735.912	31195.04854
736.105	31552.56566
736.298	31440.1978
736.491	31436.1118
736.684	31005.07302
736.877	30843.70578
737.07	31068.39677
737.263	31209.34829
737.456	31282.89109
737.649	31863.13679
737.842	32018.43828
738.035	31654.72271
738.228	31289.01975
738.421	31891.74414
738.614	31507.61791
738.807	32089.96247
739	31419.76782
739.192	31452.45587
739.385	31405.46693
739.578	31863.13679
739.771	31946.91648
739.964	32016.39477
740.156	31928.52555
740.349	31368.69358
740.542	31662.89546
740.735	31542.35019
740.927	31664.93865
741.12	31693.54352
741.313	31613.85937
741.505	32130.83454
741.698	30968.30502
741.891	31092.90957
742.083	31054.09774
742.276	30986.68896
742.468	31419.76782
742.661	30833.49296
742.854	30937.66538
743.046	30878.42964
743.239	30947.87856
743.431	31401.38098
743.624	31139.89303
743.816	31125.59363
744.009	30890.68521
744.201	30886.60001
744.393	30563.88657
744.586	30870.25928
744.778	30943.79328
744.971	30776.30178
745.163	31013.24375
745.355	30735.45159
745.548	30637.4133
745.74	30312.68256
745.932	30400.49971
746.125	30672.13485
746.317	30717.06918
746.509	30725.23912
746.702	31043.88419
746.894	30723.19664
747.086	30186.0664
747.278	30459.72652
747.471	30194.23504
747.663	30382.11919
747.855	30173.81346
748.047	30083.95988
748.239	30621.07388
748.431	30247.33171
748.623	30333.10495
748.815	29802.16071
749.008	30235.07856
749.2	29879.75546
749.392	30004.31881
749.584	29551.00958
749.776	30002.27675
749.968	29883.83943
750.16	29716.39995
750.352	29722.52565
750.544	30112.54941
750.736	29810.3285
750.928	30124.80214
751.12	29563.26048
751.311	29683.72968
751.503	29791.95099
751.695	29301.91629
751.887	28938.51299
752.079	29254.95783
752.271	28758.86509
752.463	28922.18103
752.654	29003.84149
752.846	29528.5497
753.038	29124.29371
753.23	29453.00379
753.421	29248.83285
753.613	29279.45782
753.805	30055.37058
753.997	29820.53827
754.188	29934.88954
754.38	29030.3815
754.572	29061.00481
754.763	29438.71148
754.955	28746.61666
755.146	29167.1674
755.338	29005.88303
755.53	28638.42385
755.721	29099.79466
755.913	29014.04917
756.104	29003.84149
756.296	28895.64174
756.487	28620.05178
756.679	28856.85385
756.87	28654.75465
757.062	28075.05305
757.253	28511.86243
757.445	28746.61666
757.636	28493.49095
757.827	28520.02756
758.019	28360.81059
758.21	28301.6162
758.401	28277.12223
758.593	28111.7921
758.784	27691.3562
758.975	27589.31616
759.167	27650.53982
759.358	28393.46995
759.549	28230.17591
759.74	28050.56056
759.932	28552.68825
760.123	27746.45907
760.314	27648.49902
760.505	27675.02959
760.696	27201.59241
760.888	27581.15309
761.079	27328.10772
761.27	27301.5799
761.461	27466.87214
761.652	27546.46025
761.843	26695.58389
762.034	27095.48674
762.225	26954.69837
762.416	27509.72704
762.607	27213.83561
762.798	27570.94927
762.989	27958.71514
763.18	27489.31988
763.371	27148.53912
763.562	27356.67638
763.753	27207.71401
763.944	27330.14833
764.135	27140.37716
764.326	27240.3627
764.517	27215.87615
764.708	27226.07885
764.899	26964.90021
765.089	27177.10617
765.28	26924.09309
765.471	26897.56876
765.662	26263.10119
765.853	26326.33707
766.043	25997.93632
766.234	26750.66924
766.425	26193.74756
766.615	26422.21384
766.806	26807.79594
766.997	26520.13422
767.187	26281.45982
767.378	26587.45658
767.569	26387.53459
767.759	26208.02609
767.95	26444.6536
768.141	26467.09356
768.331	26332.45675
768.522	26416.09394
768.712	26295.73886
768.903	26526.25436
769.093	25844.97026
769.284	25906.15545
769.474	26169.27028
769.665	25979.57985
769.855	26232.50376
770.046	26099.91933
770.236	25322.92762
770.426	25316.81072
770.617	25991.81748
770.807	25993.85709
770.998	26350.8159
771.188	26212.10568
771.378	25645.11048
771.569	25243.40946
771.759	25061.95734
771.949	25214.86527
772.139	25394.29282
772.33	25233.21506
772.52	25286.22652
772.71	25349.43439
772.9	24888.67703
773.09	25351.47339
773.281	25045.6479
773.471	25649.18906
773.661	25033.41592
773.851	24481.02668
774.041	24902.94654
774.231	24668.53364
774.421	24723.56685
774.611	24434.15329
774.802	24434.15329
774.992	24362.82686
775.182	24898.86953
775.372	24725.60515
775.562	24368.94043
775.752	24330.22156
775.942	24077.55377
776.131	24399.50862
776.321	23930.86293
776.511	24267.05072
776.701	24044.95455
776.891	24126.45394
777.081	23963.45963
777.271	23806.59477
777.461	24271.12618
777.651	24222.22136
777.84	24004.20652
778.03	23370.72537
778.22	23448.11248
778.41	23725.11335
778.599	23875.85766
778.789	23549.94448
778.979	23643.63668
779.169	23582.53234
779.358	23751.5943
779.548	24081.62872
779.738	23682.3375
779.927	23853.44871
780.117	24099.96615
780.307	23859.56021
780.496	23924.75113
780.686	23902.34142
780.875	23319.81528
781.065	23268.90717
781.254	23108.05083
781.444	23224.1097
781.633	22932.96476
781.823	23399.23588
782.012	23136.55553
782.202	23568.27506
782.391	23238.36327
782.581	22831.18198
782.77	23000.14603
782.96	22967.57283
783.149	22379.37158
783.338	22853.57346
783.528	22774.18735
783.717	22749.76191
783.906	22462.80085
784.096	22383.44116
784.285	22544.20108
784.474	22391.58036
784.663	22300.01771
784.853	22367.16293
785.042	21805.70976
785.231	22369.1977
785.42	22080.29782
785.61	22442.45169
785.799	22544.20108
785.988	22356.98916
786.177	21836.2161
786.366	22082.33206
786.555	22177.94575
786.744	21866.7233
786.933	21852.4865
787.122	21781.30531
787.312	21539.32497
787.501	21852.4865
787.69	21565.75709
787.879	21777.23796
788.068	21173.41108
788.257	21201.86637
788.445	21252.68137
788.634	21484.42963
788.823	21476.29723
789.012	21840.28367
789.201	21460.03263
789.39	21378.71344
789.579	21384.81215
789.768	21419.37223
789.957	21130.72964
790.145	21327.89219
790.334	21118.53527
790.523	21386.84507
790.712	21270.97539
790.9	21047.40438
791.089	21002.6961
791.278	21358.38464
791.467	21323.8266
791.655	21362.45037
791.844	21006.76041
792.033	20697.92005
792.221	20519.16156
792.41	20338.40466
792.599	19983.0808
792.787	20799.50173
792.976	20557.75441
793.164	20624.78767
793.353	20496.81902
793.541	20724.33029
793.73	20834.04186
793.918	20775.12118
794.107	20395.26842
794.295	20435.88741
794.484	20517.1304
794.672	20265.29895
794.861	20541.50461
795.049	20569.94194
795.238	20210.47324
795.426	20519.16156
795.614	20537.4422
795.803	20405.42301
795.991	20350.58947
796.179	20417.60865
796.368	20293.7283
796.556	20423.70153
796.744	20017.59233
796.932	20533.3798
797.121	19575.12476
797.309	20060.22589
797.497	19960.75046
797.685	19887.67291
797.874	19895.79237
798.062	20295.759
798.25	20021.65259
798.438	20448.07343
798.626	19932.33077
798.814	20439.9494
799.002	20255.14581
799.19	19816.63051
799.378	19567.00795
799.566	19544.68706
799.755	19625.85634
799.943	19745.59325
800.131	19767.91869
800.318	19964.81049
800.506	19534.54137
800.694	19542.65792
800.882	19542.65792
801.07	19439.17696
801.258	19771.97791
801.446	19713.12078
801.634	19457.43752
801.822	19611.65124
802.01	19593.38783
802.197	20182.0463
802.385	19664.4141
802.573	19636.00297
802.761	19491.93061
802.949	19236.30443
803.136	19323.53455
803.324	19096.34635
803.512	19242.39
803.699	19343.82172
803.887	19431.06127
804.075	19790.24464
804.262	19528.45401
804.45	19252.53271
804.638	19209.93402
804.825	19254.56126
805.013	19216.01944
805.201	19398.59915
805.388	19536.5705
805.576	19658.32593
805.763	19686.73769
805.951	19489.90157
806.138	19416.85896
806.326	19743.56369
806.513	19526.42489
806.701	19355.99422
806.888	19311.36245
807.075	19520.33758
807.263	19666.44349
807.45	19690.79658
807.638	19441.2059
807.825	19638.03231
808.012	19009.13592
808.2	19443.23484
808.387	19471.64041
808.574	19705.00283
808.761	19526.42489
808.949	19836.92781
809.136	19443.23484
809.323	19510.19214
809.51	19410.77232
809.698	19512.22122
809.885	19745.59325
810.072	19642.091
810.259	19512.22122
810.446	19765.88908
810.633	19457.43752
810.82	19678.61996
811.008	19136.91191
811.195	19272.81844
811.382	19311.36245
811.569	19362.08053
811.756	19078.09239
811.943	19859.25533
812.13	19349.90796
812.317	19327.59196
812.504	19457.43752
812.691	19782.12605
812.878	19820.68993
813.064	19834.89806
813.251	19473.66941
813.438	19702.97336
813.625	19321.50586
813.812	19591.35858
813.999	19388.45495
814.186	19382.36848
814.372	19337.73553
814.559	19607.59267
814.746	19891.73263
814.933	19236.30443
815.12	19189.64957
815.306	18873.26479
815.493	18873.26479
815.68	19165.30877
815.866	19053.75428
816.053	18960.46359
816.24	18852.98706
816.426	18990.88352
816.613	19005.07981
816.799	18842.84834
816.986	18686.72467
817.173	19013.19205
817.359	18761.74221
817.546	19230.21889
817.732	18559.00445
817.919	18698.88931
818.105	18846.90382
818.292	18952.35176
818.478	18871.237
818.665	18925.98876
818.851	19140.96855
819.037	19090.26166
819.224	18820.54352
819.41	18779.99054
819.597	18581.3037
819.783	18946.26793
819.969	18678.61499
820.156	18717.13654
820.342	18467.78514
820.528	18741.46667
820.714	18996.96762
820.901	19031.44485
821.087	18646.17689
821.273	18388.73468
821.459	18818.51584
821.646	18668.47798
821.832	18713.08157
822.018	18800.26683
822.204	18068.53715
822.39	18153.64398
822.576	18362.3858
822.762	18532.65141
822.948	18481.9743
823.134	18494.13659
823.32	18058.40581
823.507	18028.01232
823.693	17884.16065
823.879	17697.78725
824.065	18182.01435
824.25	18212.41198
824.436	17987.48893
824.622	18259.02328
824.808	18220.51815
824.994	18038.1434
825.18	17766.66103
825.366	18139.45907
825.552	18232.67752
825.738	18581.3037
825.923	18086.77379
826.109	18366.43943
826.295	17991.5412
826.481	17673.47979
826.667	17620.81524
826.852	17867.95312
827.038	17910.49837
827.224	18362.3858
827.409	18109.06342
827.595	17772.73831
827.781	17622.84076
827.966	18380.62726
828.152	17673.47979
828.338	17936.83667
828.523	17612.7132
828.709	17572.20377
828.894	17424.35523
829.08	17191.4764
829.266	17231.97425
829.451	17134.78136
829.637	16991.02875
829.822	17264.37336
830.008	16810.85077
830.193	17177.30243
830.378	17023.4225
830.564	17412.20405
830.749	17019.37324
830.935	17207.6754
831.12	16991.02875
831.305	17120.60794
831.491	17100.36045
831.676	16932.31681
831.861	17029.4964
832.047	17017.34861
832.232	16984.95499
832.417	17381.82656
832.602	16954.5866
832.788	17329.17387
832.973	17280.57321
833.158	17023.4225
833.343	16891.82711
833.528	16942.4394
833.714	16802.75335
833.899	17082.13794
834.084	16887.7782
834.269	17001.15172
834.454	16731.90265
834.639	16827.04571
834.824	17136.80614
835.009	16839.19203
835.194	16685.34521
835.379	17023.4225
835.564	16462.69572
835.749	16948.51299
835.934	16657.00651
836.119	16478.88753
836.304	16729.87839
836.489	16365.54755
836.674	16043.77421
836.859	15974.97256
837.044	16268.40382
837.228	16173.28791
837.413	16070.08117
837.598	16240.07102
837.783	16244.11854
837.968	16470.79161
838.152	16187.45387
838.337	16507.22352
838.522	15798.92818
838.707	16043.77421
838.891	15616.82199
839.076	15353.79048
839.261	15645.14913
839.445	15798.92818
839.63	15707.87412
839.815	16110.55391
839.999	15827.25654
840.184	16116.62488
840.368	16009.37318
840.553	15914.26653
840.737	15509.58486
840.922	15645.14913
841.106	15618.84535
841.291	15507.56154
841.475	15252.62649
841.66	15477.21175
841.844	15287.02218
842.029	15361.88363
842.213	15299.16185
842.397	15473.16513
842.582	15485.30502
842.766	15527.7948
842.951	14975.43787
843.135	14943.06523
843.319	15005.78714
843.504	14787.27008
843.688	15143.36983
843.872	15274.88252
844.056	14939.01864
844.241	15295.11529
844.425	14827.73669
844.609	15023.99667
844.793	14924.85557
844.977	14787.27008
845.161	14334.0161
845.346	14512.08759
845.53	14348.18132
845.714	14536.36921
845.898	14153.90766
846.082	14412.93559
846.266	14775.13004
846.45	14582.90849
846.634	14546.4865
846.818	14700.26581
847.002	14568.74443
847.186	14593.02565
847.37	14576.83819
847.554	14762.98997
847.738	14469.59429
847.922	14508.04063
848.106	14315.80355
848.29	14200.45401
848.473	14115.4555
848.657	14115.4555
848.841	14321.87441
849.025	14348.18132
849.209	14216.64379
849.392	14635.51738
849.576	14022.35743
849.76	14151.88388
849.944	13965.68658
850.127	13998.07016
850.311	13923.18213
850.495	14066.8832
850.678	14032.47703
850.862	14141.76496
851.046	13769.34642
851.229	13738.98212
851.413	13751.12792
851.596	13799.71005
851.78	13710.64147
851.964	14012.23778
852.147	13597.27254
852.331	13775.4192
852.514	13413.02453
852.698	13641.81157
852.881	13346.2015
853.065	13317.851
853.248	13338.10144
853.431	13536.53478
853.615	13040.37563
853.798	13267.22306
853.982	13167.9844
854.165	13366.45137
854.348	13313.80086
854.532	13593.22345
854.715	13431.24824
854.898	13346.2015
855.081	13356.32648
855.265	13520.33751
855.448	13222.66824
855.631	13380.62603
855.814	13022.14424
855.997	13030.24713
856.181	13220.64297
856.364	13167.9844
856.547	13066.70915
856.73	13224.69351
856.913	12699.98632
857.096	13030.24713
857.279	12612.83731
857.462	12847.91234
857.645	12556.08307
857.828	12410.12065
858.011	12472.96971
858.194	12568.2451
858.377	12343.20971
858.56	12610.81046
858.743	12503.37829
858.926	12552.029
859.109	12369.56945
859.292	12233.70276
859.475	12134.31711
859.658	12219.50589
859.841	12089.68914
860.023	12146.48774
860.206	11984.18997
860.389	12318.87661
860.572	11951.72438
860.755	12049.11504
860.937	12008.53782
861.12	12199.22403
861.303	12069.40247
861.486	11994.33505
861.668	11561.96839
861.851	11651.31614
862.034	11661.46817
862.216	11511.19463
862.399	11468.54011
862.581	11466.50883
862.764	11230.81428
862.947	11584.30699
863.129	11539.62866
863.312	11797.48411
863.494	11395.40818
863.677	11531.50484
863.859	11724.40582
864.042	11543.69051
864.224	11401.50299
864.406	11232.84671
864.589	11119.01446
864.771	11312.1035
864.954	11098.68376
865.136	11310.07147
865.318	11157.63983
865.501	11236.91154
865.683	11153.57418
865.865	11348.67835
866.048	11167.80376
866.23	11403.53457
866.412	11019.38369
866.594	11431.97572
866.777	11334.45518
866.959	11320.23153
867.141	11098.68376
867.323	11395.40818
867.505	10909.55577
867.687	10866.83599
867.869	10805.79889
868.052	10732.54041
868.234	10581.90443
868.416	10903.45325
868.598	10492.30489
868.78	10787.48571
868.962	10797.65981
869.144	11013.28299
869.326	10848.52596
869.508	10785.45085
869.69	11001.0813
869.872	10815.97247
870.054	10870.90476
870.236	10653.15952
870.417	10750.85647
870.599	10822.07647
870.781	10789.52055
870.963	10862.76717
871.145	10691.83456
871.327	10907.5216
871.508	10752.89153
871.69	10954.30443
871.872	10708.11748
872.054	10879.04215
872.235	10510.63406
872.417	10478.04816
872.599	10308.95552
872.78	10423.05199
872.962	10504.52446
873.144	10579.86835
873.325	10302.84204
873.507	10651.12387
873.689	10537.10772
873.87	10569.68775
874.052	10166.27585
874.233	10512.67058
874.415	10439.34813
874.596	10461.75398
874.778	10374.15856
874.959	10227.43245
875.141	9835.81055
875.322	10461.75398
875.503	10292.65263
875.685	10410.82934
875.866	10207.04829
876.048	10090.83222
876.229	10109.18514
876.41	10357.85907
876.592	10366.00892
876.773	10522.85294
876.954	10343.59633
877.136	10565.61542
877.317	10443.42204
877.498	10331.3706
877.679	10045.96473
877.86	10266.1586
878.042	9986.81068
878.223	10186.66276
878.404	10135.6929
878.585	10251.89164
878.766	10202.97129
878.947	10473.97469
879.128	10094.91074
879.309	10211.12523
879.49	10302.84204
879.672	10300.80418
879.853	10001.09035
880.034	10145.88756
880.215	10182.58549
880.396	10396.56898
880.576	10366.00892
880.757	10571.72389
880.938	10235.58573
881.119	10353.78407
881.3	10429.16314
881.481	10490.26826
881.662	10634.83823
881.843	10826.14575
882.023	10482.12158
882.204	10608.37238
882.385	10396.56898
882.566	10496.37813
882.747	10168.31461
882.927	10431.20017
883.108	10276.34888
883.289	10423.05199
883.469	9888.87382
883.65	10310.99332
883.831	10113.26341
884.011	10512.67058
884.192	10547.28932
884.373	10539.14406
884.553	10671.47983
884.734	10537.10772
884.914	10441.38509
885.095	10579.86835
885.275	10416.94072
885.456	10390.45721
885.636	10457.6803
885.817	10561.54304
885.997	10319.14439
886.178	10571.72389
886.358	10386.38262
886.538	10606.33646
886.719	10341.55874
886.899	10571.72389
887.08	10581.90443
887.26	10866.83599
887.44	10508.59754
887.621	10549.32561
887.801	10357.85907
887.981	10496.37813
888.161	10410.82934
888.342	10647.05254
888.522	10488.23161
888.702	10522.85294
888.882	10575.79615
889.062	10563.57924
889.242	10341.55874
889.423	10406.75502
889.603	10231.50912
889.783	10528.96221
889.963	10298.76632
890.143	10247.81525
890.323	10207.04829
890.503	10408.79218
890.683	10300.80418
890.863	10245.77703
891.043	10184.62413
891.223	10384.34531
891.403	10284.50086
891.583	10447.49589
891.763	10101.02843
891.943	10473.97469
892.122	10205.0098
892.302	10253.92982
892.482	10137.73186
892.662	10174.43078
892.842	10221.31734
893.022	10461.75398
893.201	10015.36931
893.381	10357.85907
893.561	10015.36931
893.741	9982.73065
893.92	9888.87382
894.1	9723.52798
894.28	9803.15123
894.459	9770.48807
894.639	9852.13878
894.819	9860.30253
894.998	9946.00774
895.178	10211.12523
895.357	9990.89066
895.537	10076.55694
895.716	10041.88553
895.896	10160.15951
896.075	9656.13633
896.255	9913.36119
896.434	9447.72718
896.614	9733.73738
896.793	9333.23545
896.973	9786.82013
897.152	9611.19921
897.331	9803.15123
897.511	9741.90462
897.69	9839.8927
897.87	9831.72834
898.049	9650.00898
898.228	9617.32744
898.407	9780.69572
898.587	9472.2545
898.766	9937.84645
898.945	9474.29834
899.124	9568.29762
899.304	9609.15643
899.483	9359.81846
899.662	9353.68417
899.841	9353.68417
900.02	9065.20229
900.199	9494.73583
900.378	9218.69191
900.557	9251.42399
900.737	9255.51519
900.916	9472.2545
901.095	9261.65188
901.274	9183.90935
901.453	9059.0607
901.632	8962.82182
901.811	8821.46411
901.989	9171.63198
902.168	8864.49504
902.347	9247.33271
902.526	8846.05419
902.705	9183.90935
902.884	8944.38867
903.063	9316.87528
903.242	9034.49274
903.42	9339.37024
903.599	8667.71668
903.778	9011.96991
903.957	8766.12689
904.135	8786.6237
904.314	8554.90243
904.493	8837.85778
904.672	8741.5283
904.85	8723.07763
905.029	8655.41241
905.207	8485.13423
905.386	8552.85074
905.565	8749.72812
905.743	8403.02577
905.922	8456.39976
906.1	8228.44233
906.279	8312.67078
906.457	8224.33277
906.636	8575.41833
906.814	8591.82969
906.993	8318.83255
907.171	8333.20931
907.35	8534.38464
907.528	8271.58786
907.707	8503.60442
907.885	8183.23289
908.063	8361.95998
908.242	8119.51233
908.42	8154.45824
908.598	7930.29205
908.777	8020.81015
908.955	7942.63776
909.133	8107.1771
909.311	7753.25509
909.49	7977.61327
909.668	7567.8177
909.846	7602.85794
910.024	7475.03423
910.202	7670.85965
910.38	7400.77599
910.559	7749.13611
910.737	7514.21479
910.915	7771.78942
911.093	7347.12751
911.271	7609.04087
911.449	7398.71286
911.627	7404.90218
911.805	7217.07169
911.983	7431.72034
912.161	7026.99096
912.339	7501.84282
912.517	7159.24099
912.695	7301.72111
912.872	7167.50358
913.05	7243.91576
913.228	6890.51177
913.406	7088.99456
913.584	7043.52723
913.762	7084.86161
913.939	6886.3745
914.117	6964.96715
914.295	6797.40119
914.473	7351.25484
914.65	7051.79482
914.828	6987.71157
915.006	6863.61789
915.184	7411.09131
915.361	6579.96303
915.539	6973.23817
915.716	6708.38569
915.894	7126.18705
916.072	6803.61
916.249	6809.8186
916.427	6838.78936
916.604	7060.06206
916.782	6948.42405
916.959	6933.94764
917.137	6602.75416
917.314	6579.96303
917.492	6434.86294
917.669	6575.81889
917.847	6277.19663
918.024	6635.89991
918.201	6441.08385
918.379	6708.38569
918.556	6183.77791
918.733	6219.075
918.911	5936.50805
919.088	6227.37922
919.265	5853.31721
919.442	6289.64887
919.62	5847.07637
919.797	6256.44101
919.974	5740.94968
920.151	6152.62779
920.328	5801.30376
920.506	5807.54615
920.683	5792.98024
920.86	5657.6701
921.037	5507.67177
921.214	5938.58734
921.391	5726.37848
921.568	5899.07684
921.745	5884.5182
921.922	5932.3494
922.099	6021.73951
922.276	5686.82225
922.453	5409.69033
922.63	5659.75255
922.807	5532.67998
922.984	5636.84431
923.161	5395.09291
923.338	5490.99775
923.514	5107.08097
923.691	5386.75101
923.868	5006.79899
924.045	5228.18365
924.222	5226.09634
924.399	5326.261
924.575	5167.6421
924.752	5207.30947
924.929	4998.43976
925.105	5077.83757
925.282	4985.90021
925.459	5173.90592
925.635	4866.73326
925.812	5015.15786
925.989	4967.08934
926.165	4630.27118
926.342	4747.49205
926.518	4561.16168
926.695	4468.97806
926.871	4416.58201
927.048	4359.97895
927.224	4410.29357
927.401	4053.63246
927.577	4445.92549
927.754	4236.23591
927.93	4378.8484
928.107	4162.79388
928.283	4326.42892
928.459	4120.81541
928.636	4477.36016
928.812	4003.23134
928.988	4202.66563
929.165	3984.32788
929.341	4345.30149
929.517	3927.60758
929.693	4143.90461
929.87	3748.94837
930.046	4101.92236
930.222	3906.59631
930.398	4022.13315
930.574	3751.05107
930.751	4139.70676
930.927	3936.01152
931.103	3959.12068
931.279	3698.47776
931.455	4166.99127
931.631	3715.30253
931.807	3851.95764
931.983	3685.85838
932.159	4034.73343
932.335	3365.94365
932.511	3412.27303
932.687	3273.25965
932.863	3488.06617
933.039	3073.03619
933.215	3264.8322
933.391	3094.1192
933.566	3363.83756
933.742	3142.60412
933.918	3184.75799
934.094	2809.371
934.27	3174.22013
934.445	2847.35278
934.621	2967.5979
934.797	2705.95379
934.973	2914.86463
935.148	2737.61552
935.324	2570.83155
935.5	2446.2225
935.675	2501.13983
935.851	2391.29786
936.027	2473.6821
936.202	2222.25667
936.378	2412.42356
936.553	2137.71448
936.729	2308.89791
936.904	2061.61567
937.08	1871.33058
937.255	1799.43352
937.431	1898.81914
937.606	1602.75169
937.782	1655.62562
937.957	1427.20397
938.133	1480.08026
938.308	1342.60252
938.483	1420.85882
938.659	1232.62439
938.834	1319.33745
939.009	1226.27971
939.185	1158.60493
939.36	1048.64267
939.535	1162.8345
939.71	900.64146
939.886	1012.69656
940.061	756.90586
940.236	906.98365
940.411	877.38736
940.586	763.24622
940.761	775.92721
940.937	945.03827
941.112	778.04075
941.287	716.75241
941.462	769.58667
941.637	701.96001
941.812	695.62058
941.987	716.75241
942.162	699.84686
942.337	606.87955
942.512	583.64144
942.687	769.58667
942.862	600.54173
943.037	718.86566
943.212	518.16095
943.386	653.36032
943.561	592.09148
943.736	530.83356
943.911	535.05787
944.086	497.04108
944.26	509.71283
944.435	600.54173
944.61	482.25804
944.785	516.0489
944.959	539.28225
945.134	663.92495
945.309	560.40493
945.483	543.50667
945.658	547.73116
945.833	640.68315
946.007	509.71283
946.182	651.24742
946.357	448.471
946.531	497.04108
946.706	539.28225
946.88	539.28225
947.055	463.25235
947.229	594.20402
947.404	383.02003
947.578	530.83356
947.752	469.58744
947.927	573.07919
948.101	499.153
948.276	632.23195
948.45	516.0489
948.624	577.30405
948.799	566.742
948.973	505.48886
949.147	547.73116
949.321	454.80577
949.496	482.25804
949.67	666.03791
949.844	657.58613
950.018	577.30405
950.193	564.62963
950.367	636.45753
950.541	594.20402
950.715	606.87955
950.889	526.6093
951.063	592.09148
951.237	522.3851
951.411	672.37686
951.585	611.10482
951.759	651.24742
951.933	602.65432
952.107	746.3388
952.281	649.13455
952.455	750.56559
952.629	543.50667
952.803	771.70018
952.977	497.04108
953.151	657.58613
953.325	581.52897
953.499	727.31874
953.672	524.49719
953.846	693.50746
954.02	594.20402
954.194	687.16816
954.368	537.17005
954.541	644.90883
954.715	613.21748
954.889	695.62058
955.062	716.75241
955.236	737.88533
955.41	661.812
955.583	718.86566
955.757	606.87955
955.93	554.06798
956.104	649.13455
956.278	598.42915
956.451	668.15088
956.625	611.10482
956.798	478.03445
956.972	644.90883
957.145	592.09148
957.319	623.78095
957.492	596.31658
957.665	773.81369
957.839	558.2926
958.012	644.90883
958.185	659.69906
958.359	619.55552
958.532	520.27302
958.705	693.50746
958.879	554.06798
959.052	653.36032
959.225	516.0489
959.398	666.03791
959.572	615.33015
959.745	659.69906
959.918	592.09148
960.091	659.69906
960.264	554.06798
960.438	623.78095
960.611	551.95569
960.784	623.78095
960.957	640.68315
961.13	649.13455
961.303	551.95569
961.476	666.03791
961.649	532.94571
961.822	729.43204
961.995	482.25804
962.168	712.52596
962.341	454.80577
962.514	585.75393
962.686	459.02903
962.859	456.91739
963.032	513.93686
963.205	549.84342
963.378	556.18028
963.551	600.54173
963.723	558.2926
963.896	611.10482
964.069	649.13455
964.242	585.75393
964.414	573.07919
964.587	446.35944
964.76	378.79793
964.932	505.48886
965.105	484.36986
965.278	581.52897
965.45	497.04108
965.623	678.71592
965.795	465.36403
965.968	600.54173
966.14	526.6093
966.313	513.93686
966.485	513.93686
966.658	463.25235
966.83	456.91739
967.003	499.153
967.175	454.80577
967.348	524.49719
967.52	505.48886
967.692	513.93686
967.865	499.153
968.037	613.21748
968.209	475.92268
968.382	456.91739
968.554	383.02003
968.726	516.0489
968.898	421.02194
969.071	518.16095
969.243	389.35331
969.415	433.6904
969.587	319.69565
969.759	385.13111
969.932	328.13799
970.104	389.35331
970.276	393.57558
970.448	429.46752
970.62	437.91335
970.792	361.91018
970.964	338.69132
971.136	372.4649
971.308	313.36408
971.48	488.59354
971.652	336.58062
971.824	364.02109
971.996	256.38735
972.168	345.02353
972.339	277.48826
972.511	364.02109
972.683	328.13799
972.855	332.35927
973.027	330.24862
973.199	345.02353
973.37	374.57589
973.542	366.13202
973.714	357.68842
973.886	492.81728
974.057	311.25359
974.229	349.24509
974.401	298.59104
974.572	260.60738
974.744	176.22159
974.915	338.69132
975.087	340.80204
975.259	370.35392
975.43	252.16739
975.602	243.72771
975.773	290.14971
975.945	285.92915
976.116	317.58511
976.288	319.69565
976.459	260.60738
976.63	336.58062
976.802	300.70142
976.973	252.16739
977.145	273.26793
977.316	277.48826
977.487	247.94751
977.659	353.46672
977.83	304.92223
978.001	264.82749
978.172	328.13799
978.344	315.47458
978.515	214.19127
978.686	264.82749
978.857	226.84928
979.028	142.47636
979.2	186.76807
979.371	214.19127
979.542	262.71742
979.713	188.87742
979.884	144.58528
980.055	205.753
980.226	136.14973
980.397	252.16739
980.568	245.8376
980.739	186.76807
980.91	197.31505
981.081	260.60738
981.252	201.53399
981.423	233.17854
981.594	184.65873
981.765	195.20561
981.936	167.78478
982.106	176.22159
982.277	262.71742
982.448	163.5665
982.619	138.25859
982.79	193.0962
982.96	214.19127
983.131	195.20561
983.302	108.73657
983.472	178.33085
983.643	153.02117
983.814	271.15779
983.984	195.20561
984.155	237.39815
984.326	205.753
984.496	222.62986
984.667	138.25859
984.837	150.91217
985.008	159.34831
985.178	153.02117
985.349	218.41053
985.519	159.34831
985.69	155.13019
985.86	121.38835
986.031	167.78478
986.201	125.60578
986.371	186.76807
986.542	155.13019
986.712	176.22159
986.882	172.00315
987.053	127.71452
987.223	176.22159
987.393	142.47636
987.563	163.5665
987.734	125.60578
987.904	150.91217
988.074	117.171
988.244	85.54372
988.414	153.02117
988.585	104.51949
988.755	112.95374
988.925	121.38835
989.095	117.171
989.265	180.44012
989.435	176.22159
989.605	108.73657
989.775	138.25859
989.945	108.73657
990.115	188.87742
990.285	104.51949
990.455	51.8135
990.625	127.71452
990.795	123.49705
990.965	93.97717
991.134	150.91217
991.304	72.8942
991.474	121.38835
991.644	136.14973
991.814	159.34831
991.984	53.92147
992.153	123.49705
992.323	-30.3788
992.493	117.171
992.662	100.3025
992.832	56.02946
993.002	37.05838
993.171	104.51949
993.341	5.44413
993.511	70.78603
993.68	117.171
993.85	68.67788
994.019	68.67788
994.189	125.60578
994.358	161.45739
994.528	39.16618
994.697	134.0409
994.867	58.13747
995.036	112.95374
995.206	53.92147
995.375	28.62739
995.544	87.65205
995.714	32.84284
995.883	102.41098
996.052	83.43541
996.222	110.84515
996.391	26.51971
996.56	68.67788
996.73	43.38186
996.899	89.7604
997.068	93.97717
997.237	75.0024
997.406	110.84515
997.576	108.73657
997.745	96.08559
997.914	129.82329
998.083	100.3025
998.252	102.41098
998.421	20.19678
998.59	64.46165
998.759	125.60578
998.928	112.95374
999.097	140.36746
999.266	-2.98542
999.435	87.65205
999.604	7.55158
999.773	62.35357
999.942	53.92147
1000.111	58.13747
1000.28	117.171
1000.448	176.22159
1000.617	70.78603
1000.786	83.43541
1000.955	9.65906
1001.124	43.38186
1001.292	-9.30734
1001.461	108.73657
1001.63	9.65906
1001.798	79.21886
1001.967	91.86877
1002.136	18.08919
1002.304	70.78603
1002.473	-0.87807
1002.642	64.46165
1002.81	70.78603
1002.979	60.24551
1003.147	5.44413
1003.316	136.14973
1003.484	144.58528
1003.653	60.24551
1003.821	91.86877
1003.99	41.27401
1004.158	72.8942
1004.327	119.27966
1004.495	22.3044
1004.663	32.84284
1004.832	-0.87807
1005	68.67788
1005.168	24.41204
1005.337	75.0024
1005.505	7.55158
1005.673	64.46165
1005.842	112.95374
1006.01	66.56975
1006.178	-32.48582
1006.346	18.08919
1006.514	34.9506
1006.683	100.3025
1006.851	96.08559
1007.019	58.13747
1007.187	-21.95051
1007.355	11.76656
1007.523	127.71452
1007.691	96.08559
1007.859	3.33671
1008.027	110.84515
1008.195	1.22931
1008.363	-47.2342
1008.531	3.33671
1008.699	66.56975
1008.867	41.27401
1009.035	20.19678
1009.203	-24.05762
1009.37	41.27401
1009.538	70.78603
1009.706	3.33671
1009.874	85.54372
1010.042	68.67788
1010.209	49.70556
1010.377	58.13747
1010.545	70.78603
1010.713	20.19678
1010.88	53.92147
1011.048	58.13747
1011.216	28.62739
1011.383	140.36746
1011.551	7.55158
1011.718	9.65906
1011.886	18.08919
1012.054	47.59764
1012.221	150.91217
1012.389	26.51971
1012.556	41.27401
1012.724	18.08919
1012.891	-38.8067
1013.058	58.13747
1013.226	49.70556
1013.393	-13.52183
1013.561	24.41204
1013.728	11.76656
1013.895	28.62739
1014.063	77.11062
1014.23	15.98162
1014.397	-2.98542
1014.565	58.13747
1014.732	117.171
1014.899	77.11062
1015.066	-19.84338
1015.233	51.8135
1015.401	-0.87807
1015.568	102.41098
1015.735	93.97717
1015.902	60.24551
1016.069	-13.52183
1016.236	34.9506
1016.403	51.8135
1016.57	-19.84338
1016.737	64.46165
1016.904	43.38186
1017.071	32.84284
1017.238	28.62739
1017.405	-30.3788
1017.572	64.46165
1017.739	7.55158
1017.906	64.46165
1018.073	45.48974
1018.24	75.0024
1018.407	121.38835
1018.573	24.41204
1018.74	26.51971
1018.907	18.08919
1019.074	24.41204
1019.241	53.92147
1019.407	18.08919
1019.574	11.76656
1019.741	15.98162
1019.907	75.0024
1020.074	91.86877
1020.241	-24.05762
1020.407	93.97717
1020.574	-43.0205
1020.74	18.08919
1020.907	39.16618
1021.073	68.67788
1021.24	20.19678
1021.406	51.8135
1021.573	-0.87807
1021.739	-32.48582
1021.906	24.41204
1022.072	37.05838
1022.239	49.70556
1022.405	45.48974
1022.571	-2.98542
1022.738	32.84284
1022.904	-17.73622
1023.07	49.70556
1023.237	34.9506
1023.403	45.48974
1023.569	49.70556
1023.735	75.0024
1023.902	18.08919
1024.068	32.84284
1024.234	7.55158
1024.4	34.9506
1024.566	68.67788
1024.732	-19.84338
1024.898	83.43541
1025.065	5.44413
1025.231	24.41204
1025.397	7.55158
1025.563	26.51971
1025.729	49.70556
1025.895	24.41204
1026.061	119.27966
1026.227	20.19678
1026.392	41.27401
1026.558	89.7604
1026.724	49.70556
1026.89	11.76656
1027.056	43.38186
1027.222	-9.30734
1027.388	15.98162
1027.553	85.54372
1027.719	45.48974
1027.885	-38.8067
1028.051	167.78478
1028.216	34.9506
1028.382	15.98162
1028.548	-26.16471
1028.713	49.70556
1028.879	49.70556
1029.045	70.78603
1029.21	108.73657
1029.376	-5.09275
1029.541	32.84284
1029.707	7.55158
1029.873	100.3025
1030.038	117.171
1030.204	-2.98542
1030.369	-21.95051
1030.534	15.98162
1030.7	75.0024
1030.865	70.78603
1031.031	66.56975
1031.196	-9.30734
1031.361	9.65906
1031.527	-57.768
1031.692	70.78603
1031.857	66.56975
1032.023	91.86877
1032.188	11.76656
1032.353	7.55158
1032.518	58.13747
1032.684	7.55158
1032.849	37.05838
1033.014	1.22931
1033.179	18.08919
1033.344	41.27401
1033.509	-21.95051
1033.674	49.70556
1033.839	9.65906
1034.004	68.67788
1034.17	-9.30734
1034.335	41.27401
1034.5	100.3025
1034.664	49.70556
1034.829	87.65205
1034.994	100.3025
1035.159	-21.95051
1035.324	11.76656
1035.489	64.46165
1035.654	53.92147
1035.819	66.56975
1035.984	-17.73622
1036.148	11.76656
1036.313	85.54372
1036.478	91.86877
1036.643	11.76656
1036.807	7.55158
1036.972	-2.98542
1037.137	60.24551
1037.301	22.3044
1037.466	-0.87807
1037.631	7.55158
1037.795	32.84284
1037.96	-17.73622
1038.124	-5.09275
1038.289	32.84284
1038.454	7.55158
1038.618	75.0024
1038.783	43.38186
1038.947	83.43541
1039.111	-17.73622
1039.276	83.43541
1039.44	93.97717
1039.605	41.27401
1039.769	11.76656
1039.933	7.55158
1040.098	-17.73622
1040.262	41.27401
1040.426	79.21886
1040.591	49.70556
1040.755	18.08919
1040.919	20.19678
1041.083	104.51949
1041.248	58.13747
1041.412	15.98162
1041.576	18.08919
1041.74	9.65906
1041.904	20.19678
1042.068	20.19678
1042.232	134.0409
1042.397	32.84284
1042.561	3.33671
1042.725	58.13747
1042.889	26.51971
1043.053	-45.12736
1043.217	41.27401
1043.381	-24.05762
1043.544	-0.87807
1043.708	-32.48582
1043.872	-15.62904
1044.036	32.84284
1044.2	58.13747
1044.364	51.8135
1044.528	81.32712
1044.691	3.33671
1044.855	-0.87807
1045.019	-38.8067
1045.183	75.0024
1045.346	24.41204
1045.51	-0.87807
1045.674	1.22931
1045.837	-17.73622
1046.001	24.41204
1046.165	-9.30734
1046.328	11.76656
1046.492	-53.55456
1046.655	7.55158
1046.819	1.22931
1046.983	26.51971
1047.146	-30.3788
1047.31	75.0024
1047.473	41.27401
1047.636	-47.2342
1047.8	18.08919
1047.963	43.38186
1048.127	-59.87469
1048.29	-13.52183
