Data from mixed_try1_USB4F045381__16__00081.txt Node

Date: Thu Apr 03 19:52:35 EDT 2025
User: mmckonesweet
Spectrometer: USB4F04538
Trigger mode: 4
Integration Time (sec): 2.700000E-3
Scans to average: 1
Electric dark correction enabled: true
Nonlinearity correction enabled: true
Boxcar width: 0
XAxis mode: Wavelengths
Number of Pixels in Spectrum: 3648
>>>>>Begin Spectral Data<<<<<
345.52	-59.69913
345.736	-59.69913
345.952	-59.69913
346.168	-0.70246
346.384	58.31314
346.6	-25.98912
346.816	26.69535
347.032	11.94218
347.248	9.83468
347.464	-13.34623
347.68	-25.98912
347.896	16.15725
348.112	3.51233
348.328	-49.16544
348.544	26.69535
348.76	9.83468
348.975	9.83468
349.191	7.72721
349.407	68.85356
349.623	-32.31023
349.839	7.72721
350.055	16.15725
350.27	35.12624
350.486	41.44967
350.702	51.98916
350.918	-9.13173
351.133	26.69535
351.349	14.04971
351.565	60.42118
351.781	7.72721
351.996	54.09713
352.212	-76.55171
352.428	51.98916
352.644	75.17808
352.859	58.31314
353.075	1.40492
353.291	92.04447
353.506	85.71941
353.722	-9.13173
353.938	77.2863
354.153	30.91075
354.369	-38.63112
354.584	-15.45344
354.8	-25.98912
355.016	1.40492
355.231	35.12624
355.447	-15.45344
355.662	-0.70246
355.878	60.42118
356.093	7.72721
356.309	28.80304
356.524	45.6654
356.74	70.96171
356.955	51.98916
357.171	49.88122
357.386	-9.13173
357.602	45.6654
357.817	-7.02445
358.033	77.2863
358.248	18.26482
358.464	3.51233
358.679	54.09713
358.895	-15.45344
359.11	33.01848
359.325	20.37242
359.541	49.88122
359.756	41.44967
359.972	49.88122
360.187	-17.56062
360.402	33.01848
360.618	-17.56062
360.833	-23.88203
361.048	117.34672
361.264	1.40492
361.479	66.74543
361.694	54.09713
361.909	35.12624
362.125	-51.27223
362.34	54.09713
362.555	35.12624
362.77	33.01848
362.986	-7.02445
363.201	56.20513
363.416	20.37242
363.631	54.09713
363.847	1.40492
364.062	16.15725
364.277	24.58768
364.492	66.74543
364.707	-7.02445
364.922	20.37242
365.138	26.69535
365.353	3.51233
365.568	96.26129
365.783	54.09713
365.998	75.17808
366.213	26.69535
366.428	-74.44523
366.643	24.58768
366.858	75.17808
367.073	-17.56062
367.288	11.94218
367.503	56.20513
367.718	14.04971
367.933	49.88122
368.148	16.15725
368.363	51.98916
368.578	39.34183
368.793	-30.20322
369.008	26.69535
369.223	49.88122
369.438	1.40492
369.653	1.40492
369.868	35.12624
370.083	102.58669
370.298	-4.91714
370.513	16.15725
370.728	24.58768
370.943	24.58768
371.157	-17.56062
371.372	16.15725
371.587	-13.34623
371.802	-17.56062
372.017	16.15725
372.232	-9.13173
372.446	83.6111
372.661	26.69535
372.876	7.72721
373.091	22.48004
373.306	33.01848
373.52	-40.73804
373.735	49.88122
373.95	58.31314
374.165	75.17808
374.379	24.58768
374.594	22.48004
374.809	-7.02445
375.023	18.26482
375.238	20.37242
375.453	7.72721
375.667	-0.70246
375.882	11.94218
376.097	-0.70246
376.311	75.17808
376.526	100.4782
376.741	45.6654
376.955	-4.91714
377.17	-17.56062
377.384	-9.13173
377.599	43.55752
377.813	30.91075
378.028	66.74543
378.242	14.04971
378.457	89.9361
378.672	73.06989
378.886	35.12624
379.101	24.58768
379.315	35.12624
379.53	49.88122
379.744	81.50281
379.958	100.4782
380.173	26.69535
380.387	-17.56062
380.602	7.72721
380.816	20.37242
381.031	45.6654
381.245	33.01848
381.459	35.12624
381.674	7.72721
381.888	-7.02445
382.103	14.04971
382.317	3.51233
382.531	20.37242
382.746	58.31314
382.96	81.50281
383.174	1.40492
383.388	51.98916
383.603	37.23403
383.817	37.23403
384.031	92.04447
384.246	11.94218
384.46	-0.70246
384.674	28.80304
384.888	-21.77492
385.103	20.37242
385.317	33.01848
385.531	-30.20322
385.745	9.83468
385.959	41.44967
386.174	41.44967
386.388	16.15725
386.602	62.52924
386.816	5.61975
387.03	43.55752
387.244	24.58768
387.458	-13.34623
387.672	-4.91714
387.887	49.88122
388.101	1.40492
388.315	51.98916
388.529	11.94218
388.743	9.83468
388.957	-0.70246
389.171	-15.45344
389.385	-15.45344
389.599	43.55752
389.813	79.39455
390.027	-0.70246
390.241	41.44967
390.455	7.72721
390.669	49.88122
390.883	-25.98912
391.097	45.6654
391.311	62.52924
391.525	92.04447
391.738	125.7815
391.952	87.82774
392.166	37.23403
392.38	20.37242
392.594	35.12624
392.808	54.09713
393.022	51.98916
393.236	-36.52418
393.449	-0.70246
393.663	92.04447
393.877	3.51233
394.091	41.44967
394.305	-9.13173
394.518	-9.13173
394.732	-7.02445
394.946	41.44967
395.16	41.44967
395.373	58.31314
395.587	-76.55171
395.801	-28.09618
396.015	41.44967
396.228	-15.45344
396.442	83.6111
396.656	-51.27223
396.869	24.58768
397.083	28.80304
397.297	49.88122
397.51	3.51233
397.724	-55.48573
397.938	24.58768
398.151	20.37242
398.365	45.6654
398.578	62.52924
398.792	66.74543
399.005	7.72721
399.219	16.15725
399.433	-13.34623
399.646	43.55752
399.86	18.26482
400.073	-11.23899
400.287	-80.7646
400.5	24.58768
400.714	79.39455
400.927	-13.34623
401.141	28.80304
401.354	41.44967
401.567	54.09713
401.781	41.44967
401.994	47.77329
402.208	-32.31023
402.421	-0.70246
402.635	33.01848
402.848	9.83468
403.061	18.26482
403.275	45.6654
403.488	26.69535
403.701	-17.56062
403.915	16.15725
404.128	83.6111
404.341	16.15725
404.555	-2.80981
404.768	-15.45344
404.981	7.72721
405.195	35.12624
405.408	16.15725
405.621	14.04971
405.834	9.83468
406.048	75.17808
406.261	26.69535
406.474	24.58768
406.687	104.6952
406.9	43.55752
407.114	-11.23899
407.327	75.17808
407.54	-7.02445
407.753	24.58768
407.966	58.31314
408.179	9.83468
408.392	39.34183
408.605	9.83468
408.819	66.74543
409.032	49.88122
409.245	7.72721
409.458	66.74543
409.671	-17.56062
409.884	35.12624
410.097	-7.02445
410.31	9.83468
410.523	-17.56062
410.736	62.52924
410.949	47.77329
411.162	-7.02445
411.375	35.12624
411.588	49.88122
411.801	16.15725
412.014	22.48004
412.227	-42.84492
412.44	60.42118
412.653	-9.13173
412.865	11.94218
413.078	54.09713
413.291	41.44967
413.504	7.72721
413.717	56.20513
413.93	-21.77492
414.143	47.77329
414.356	68.85356
414.568	-2.80981
414.781	79.39455
414.994	75.17808
415.207	45.6654
415.42	-32.31023
415.632	75.17808
415.845	-38.63112
416.058	45.6654
416.271	89.9361
416.483	-13.34623
416.696	9.83468
416.909	11.94218
417.121	83.6111
417.334	51.98916
417.547	37.23403
417.759	28.80304
417.972	102.58669
418.185	11.94218
418.397	54.09713
418.61	7.72721
418.823	49.88122
419.035	83.6111
419.248	16.15725
419.46	24.58768
419.673	73.06989
419.885	-0.70246
420.098	3.51233
420.311	47.77329
420.523	24.58768
420.736	58.31314
420.948	62.52924
421.161	-47.05863
421.373	58.31314
421.586	-25.98912
421.798	41.44967
422.01	51.98916
422.223	58.31314
422.435	16.15725
422.648	33.01848
422.86	16.15725
423.073	39.34183
423.285	26.69535
423.497	-36.52418
423.71	39.34183
423.922	-4.91714
424.134	-0.70246
424.347	-17.56062
424.559	49.88122
424.771	-80.7646
424.984	20.37242
425.196	79.39455
425.408	11.94218
425.621	54.09713
425.833	16.15725
426.045	-19.66778
426.257	45.6654
426.47	-9.13173
426.682	58.31314
426.894	83.6111
427.106	16.15725
427.318	66.74543
427.531	41.44967
427.743	-23.88203
427.955	100.4782
428.167	66.74543
428.379	-34.41722
428.591	7.72721
428.804	24.58768
429.016	7.72721
429.228	41.44967
429.44	37.23403
429.652	1.40492
429.864	18.26482
430.076	1.40492
430.288	-19.66778
430.5	16.15725
430.712	79.39455
430.924	-0.70246
431.136	58.31314
431.348	54.09713
431.56	54.09713
431.772	-13.34623
431.984	24.58768
432.196	96.26129
432.408	-0.70246
432.62	14.04971
432.832	75.17808
433.044	-4.91714
433.256	41.44967
433.468	24.58768
433.679	24.58768
433.891	87.82774
434.103	-0.70246
434.315	37.23403
434.527	45.6654
434.739	1.40492
434.95	119.45538
435.162	-42.84492
435.374	20.37242
435.586	-4.91714
435.798	37.23403
436.009	41.44967
436.221	45.6654
436.433	-0.70246
436.645	68.85356
436.856	-11.23899
437.068	-17.56062
437.28	75.17808
437.491	62.52924
437.703	28.80304
437.915	54.09713
438.126	45.6654
438.338	83.6111
438.55	16.15725
438.761	49.88122
438.973	49.88122
439.184	37.23403
439.396	22.48004
439.608	-13.34623
439.819	58.31314
440.031	102.58669
440.242	-34.41722
440.454	35.12624
440.665	1.40492
440.877	47.77329
441.088	37.23403
441.3	41.44967
441.511	83.6111
441.723	62.52924
441.934	20.37242
442.146	-21.77492
442.357	100.4782
442.569	43.55752
442.78	9.83468
442.991	54.09713
443.203	125.7815
443.414	45.6654
443.626	-0.70246
443.837	24.58768
444.048	24.58768
444.26	45.6654
444.471	94.15287
444.682	45.6654
444.894	58.31314
445.105	11.94218
445.316	35.12624
445.528	85.71941
445.739	64.63732
445.95	11.94218
446.161	75.17808
446.373	20.37242
446.584	85.71941
446.795	35.12624
447.006	1.40492
447.217	108.91229
447.429	35.12624
447.64	-17.56062
447.851	9.83468
448.062	108.91229
448.273	66.74543
448.484	-36.52418
448.695	75.17808
448.907	73.06989
449.118	24.58768
449.329	9.83468
449.54	-17.56062
449.751	26.69535
449.962	24.58768
450.173	-30.20322
450.384	56.20513
450.595	-0.70246
450.806	-47.05863
451.017	49.88122
451.228	-0.70246
451.439	58.31314
451.65	87.82774
451.861	58.31314
452.072	104.6952
452.283	41.44967
452.494	-0.70246
452.705	62.52924
452.915	-28.09618
453.126	64.63732
453.337	30.91075
453.548	3.51233
453.759	5.61975
453.97	66.74543
454.181	62.52924
454.391	24.58768
454.602	108.91229
454.813	39.34183
455.024	-21.77492
455.235	35.12624
455.445	26.69535
455.656	24.58768
455.867	98.36974
456.078	83.6111
456.288	9.83468
456.499	3.51233
456.71	16.15725
456.921	9.83468
457.131	104.6952
457.342	60.42118
457.553	108.91229
457.763	79.39455
457.974	75.17808
458.184	68.85356
458.395	24.58768
458.606	104.6952
458.816	20.37242
459.027	41.44967
459.237	-7.02445
459.448	75.17808
459.659	60.42118
459.869	16.15725
460.08	100.4782
460.29	83.6111
460.501	-34.41722
460.711	35.12624
460.922	18.26482
461.132	49.88122
461.343	87.82774
461.553	41.44967
461.764	-9.13173
461.974	66.74543
462.184	-7.02445
462.395	45.6654
462.605	85.71941
462.816	9.83468
463.026	22.48004
463.236	14.04971
463.447	11.94218
463.657	18.26482
463.867	16.15725
464.078	104.6952
464.288	26.69535
464.498	49.88122
464.709	75.17808
464.919	33.01848
465.129	58.31314
465.339	3.51233
465.55	96.26129
465.76	60.42118
465.97	37.23403
466.18	24.58768
466.391	70.96171
466.601	-36.52418
466.811	49.88122
467.021	39.34183
467.231	73.06989
467.441	16.15725
467.651	22.48004
467.862	35.12624
468.072	-23.88203
468.282	60.42118
468.492	-0.70246
468.702	104.6952
468.912	62.52924
469.122	45.6654
469.332	20.37242
469.542	77.2863
469.752	83.6111
469.962	-0.70246
470.172	-7.02445
470.382	-15.45344
470.592	94.15287
470.802	-13.34623
471.012	33.01848
471.222	-9.13173
471.432	108.91229
471.642	49.88122
471.852	11.94218
472.062	35.12624
472.272	108.91229
472.482	45.6654
472.691	83.6111
472.901	41.44967
473.111	33.01848
473.321	117.34672
473.531	43.55752
473.741	68.85356
473.95	104.6952
474.16	58.31314
474.37	-0.70246
474.58	77.2863
474.79	-13.34623
474.999	64.63732
475.209	9.83468
475.419	41.44967
475.628	151.08791
475.838	58.31314
476.048	98.36974
476.258	102.58669
476.467	75.17808
476.677	26.69535
476.886	121.56407
477.096	11.94218
477.306	7.72721
477.515	117.34672
477.725	22.48004
477.935	87.82774
478.144	127.89025
478.354	108.91229
478.563	51.98916
478.773	66.74543
478.982	92.04447
479.192	-4.91714
479.401	33.01848
479.611	35.12624
479.82	92.04447
480.03	37.23403
480.239	33.01848
480.449	62.52924
480.658	26.69535
480.868	85.71941
481.077	83.6111
481.287	151.08791
481.496	-13.34623
481.705	26.69535
481.915	39.34183
482.124	127.89025
482.333	146.86997
482.543	102.58669
482.752	41.44967
482.961	60.42118
483.171	119.45538
483.38	77.2863
483.589	94.15287
483.799	58.31314
484.008	121.56407
484.217	83.6111
484.426	94.15287
484.636	83.6111
484.845	113.12946
485.054	125.7815
485.263	54.09713
485.472	113.12946
485.682	75.17808
485.891	22.48004
486.1	94.15287
486.309	66.74543
486.518	155.30595
486.727	92.04447
486.936	129.99903
487.146	134.21663
487.355	136.32547
487.564	146.86997
487.773	127.89025
487.982	66.74543
488.191	37.23403
488.4	51.98916
488.609	111.02086
488.818	108.91229
489.027	159.52406
489.236	163.74226
489.445	172.17891
489.654	83.6111
489.863	100.4782
490.072	146.86997
490.281	189.0532
490.49	172.17891
490.698	92.04447
490.907	201.70978
491.116	248.12334
491.325	125.7815
491.534	148.97893
491.743	138.43433
491.952	142.6521
492.16	144.76102
492.369	191.16258
492.578	178.50662
492.787	113.12946
492.996	195.3814
493.204	153.19692
493.413	134.21663
493.622	193.27198
493.831	205.9288
494.039	248.12334
494.248	161.63315
494.457	180.61589
494.665	176.39736
494.874	243.90353
495.083	170.06972
495.291	189.0532
495.5	235.46415
495.709	176.39736
495.917	172.17891
496.126	195.3814
496.335	254.45319
496.543	273.44377
496.752	218.58633
496.96	227.02509
497.169	231.24458
497.377	216.47669
497.586	98.36974
497.794	237.57397
498.003	174.28813
498.211	269.22351
498.42	218.58633
498.628	302.98769
498.837	210.14789
499.045	237.57397
499.254	237.57397
499.462	286.10501
499.671	252.34322
499.879	279.77431
500.087	260.78321
500.296	279.77431
500.504	265.00332
500.713	302.98769
500.921	296.65654
501.129	256.56318
501.338	273.44377
501.546	260.78321
501.754	269.22351
501.962	370.52983
502.171	321.98209
502.379	302.98769
502.587	357.86432
502.795	286.10501
503.004	254.45319
503.212	296.65654
503.42	273.44377
503.628	370.52983
503.837	336.75651
504.045	347.3102
504.253	294.5462
504.461	385.30703
504.669	321.98209
504.877	421.19789
505.085	446.5354
505.294	480.32222
505.502	400.08505
505.71	440.20081
505.918	421.19789
506.126	374.75181
506.334	336.75651
506.542	459.205
506.75	383.19595
506.958	406.41873
507.166	463.42832
507.374	463.42832
507.582	421.19789
507.79	400.08505
507.998	465.54001
508.206	433.86636
508.414	514.11286
508.622	539.45826
508.83	505.66485
509.037	550.01944
509.245	444.42385
509.453	571.14282
509.661	412.75256
509.869	497.21707
510.077	585.92998
510.285	442.31232
510.492	495.10517
510.7	482.43403
510.908	457.09336
511.116	484.54585
511.324	573.25523
511.531	501.44093
511.739	564.80566
511.947	552.13172
512.155	497.21707
512.362	531.00957
512.57	547.90718
512.778	649.31062
512.985	531.00957
513.193	640.85922
513.401	512.00084
513.608	611.28088
513.816	566.91803
514.024	681.00505
514.231	579.59254
514.439	632.40802
514.646	522.5611
514.854	666.21399
515.061	602.83037
515.269	668.32696
515.477	607.0556
515.684	623.95701
515.892	674.66595
516.099	702.13611
516.307	712.70206
516.514	793.01189
516.722	727.49485
516.929	803.58005
517.136	733.83477
517.344	750.74171
517.551	666.21399
517.759	767.6493
517.966	818.37586
518.173	784.55754
518.381	778.21687
518.588	862.76597
518.796	668.32696
519.003	797.23912
519.21	657.76221
519.418	826.83082
519.625	795.1255
519.832	888.13345
520.039	763.42234
520.247	845.85499
520.454	809.92106
520.661	871.22166
520.868	852.19655
521.076	1044.58984
521.283	754.96854
521.49	981.15708
521.697	856.42429
521.904	957.89985
522.112	911.388
522.319	1217.99641
522.526	888.13345
522.733	995.95755
522.94	938.87185
523.147	987.5001
523.354	981.15708
523.561	1091.1105
523.768	983.27141
523.975	998.07193
524.183	1042.47532
524.39	1057.27703
524.597	987.5001
524.804	1114.37177
525.011	1091.1105
525.218	1139.74833
525.425	968.47122
525.632	1150.32209
525.838	1097.45443
526.045	1287.78895
526.252	1209.53692
526.459	1207.42206
526.666	1057.27703
526.873	1160.89594
527.08	1086.88125
527.287	1334.31872
527.494	1137.63359
527.701	1389.3094
527.907	1137.63359
528.114	1224.34106
528.321	1226.45595
528.528	1385.07932
528.735	1203.19234
528.941	1393.53948
529.148	1224.34106
529.355	1372.38911
529.562	1165.12552
529.768	1446.41569
529.975	1393.53948
530.182	1427.38022
530.388	1308.93873
530.595	1370.27407
530.802	1349.12382
531.008	1433.72538
531.215	1361.81396
531.422	1435.84043
531.628	1418.92003
531.835	1505.63708
532.042	1473.91137
532.248	1476.02642
532.455	1454.8759
532.661	1651.57201
532.868	1503.52204
533.074	1636.76741
533.281	1571.20298
533.487	1765.77408
533.694	1573.31798
533.9	1736.16705
534.107	1452.76085
534.313	1681.18081
534.52	1674.83611
534.726	1609.27288
534.933	1649.45707
535.139	1681.18081
535.345	1681.18081
535.552	1875.73586
535.758	1621.96271
535.965	1890.53742
536.171	1605.04292
536.377	1793.26563
536.584	1734.05224
536.79	1911.68206
536.996	1541.59271
537.203	1871.50679
537.409	1873.62133
537.615	2019.51068
537.821	1753.08544
538.028	1928.59738
538.234	1685.4106
538.44	1951.85535
538.646	1879.9649
538.853	2068.13377
539.059	1972.99833
539.265	2004.71163
539.471	1977.22685
539.677	2070.24773
539.883	1943.39799
540.09	1981.45535
540.296	1918.02535
540.502	2104.07014
540.708	1968.76978
540.914	2049.10778
541.12	2032.19531
541.326	2112.52545
541.532	1994.14069
541.738	2323.86483
541.944	2129.43569
542.15	2209.75232
542.356	2213.97918
542.562	2302.73493
542.768	2184.39047
542.974	2355.55786
543.18	2228.77291
543.386	2408.37455
543.592	2370.34718
543.798	2437.94905
544.004	2418.93711
544.21	2294.2827
544.415	2232.99961
544.621	2404.14945
544.827	2296.39577
545.033	2461.18469
545.239	2404.14945
545.445	2560.449
545.651	2355.55786
545.856	2549.89017
546.062	2482.30685
546.268	2522.43586
546.474	2285.83032
546.679	2408.37455
546.885	2328.0907
547.091	2552.00196
547.297	2332.31652
547.502	2552.00196
547.708	2306.96098
547.914	2549.89017
548.119	2429.49941
548.325	2649.13126
548.531	2503.42789
548.736	2619.5729
548.942	2454.84783
549.147	2763.11864
549.353	2532.99544
549.559	2560.449
549.764	2577.3425
549.97	2813.76727
550.175	2739.90209
550.381	2663.90953
550.586	2602.68133
550.792	2883.39609
550.997	2613.23865
551.203	2919.25942
551.408	2953.00928
551.614	2870.73745
551.819	2885.50581
552.025	3037.36719
552.23	2887.61552
552.435	2969.8828
552.641	2826.4282
552.846	2841.19864
553.052	2957.22775
553.257	3026.82379
553.462	2942.46286
553.668	3151.21106
553.873	2784.22319
554.078	3100.61948
554.283	2830.64839
554.489	3109.05205
554.694	3151.21106
554.899	3224.9737
555.105	3050.01877
555.31	3161.7498
555.515	2980.42826
555.72	3281.86241
555.925	3100.61948
556.131	3433.50446
556.336	3050.01877
556.541	3414.55418
556.746	3294.50267
556.951	3281.86241
557.156	3336.63243
557.361	3446.13719
557.567	3028.9325
557.772	3355.58857
557.977	3382.96717
558.182	3433.50446
558.387	3288.18261
558.592	3364.01307
558.797	3189.14864
559.002	3538.75729
559.207	3446.13719
559.412	3454.55864
559.617	3294.50267
559.822	3509.29108
560.027	3408.23709
560.232	3378.75527
560.437	3471.40069
560.642	3429.29341
560.847	3467.19029
561.051	3593.47066
561.256	3450.34795
561.461	3616.61483
561.666	3420.8711
561.871	3648.1714
562.076	3542.96645
562.281	3772.25221
562.485	3574.53284
562.69	3576.63711
562.895	3511.39593
563.1	3786.96918
563.305	3559.80238
563.509	3841.62382
563.714	3557.69795
563.919	3740.71261
564.123	3690.24018
564.328	3747.02088
564.533	3625.03033
564.737	3521.91989
564.942	3473.50587
565.147	3791.17386
565.351	3782.76443
565.556	3656.58577
565.761	3625.03033
565.965	3866.84452
566.17	3723.8897
566.374	3900.46765
566.579	3923.58057
566.784	4026.50833
566.988	3845.82746
567.193	3944.59021
567.397	3936.1866
567.602	3942.48933
567.806	3948.79189
568.011	4026.50833
568.215	3959.29574
568.42	4209.13533
568.624	4114.69284
568.828	4013.90757
569.033	3955.09426
569.237	4337.08864
569.442	4005.50665
569.646	4186.05333
569.85	3959.29574
570.055	4190.25025
570.259	4186.05333
570.463	4301.43755
570.668	4068.50552
570.872	4177.65924
571.076	3984.50292
571.281	4192.34867
571.485	4177.65924
571.689	4330.79773
571.893	4051.70764
572.098	4498.48846
572.302	4169.26482
572.506	4532.00975
572.71	4207.03707
572.914	4462.8659
573.119	4183.95484
573.323	4454.4832
573.527	4064.30617
573.731	4588.56406
573.935	4431.42895
574.139	4450.29171
574.343	4286.75587
574.547	4506.86931
574.751	4320.31243
574.955	4416.75669
575.159	4345.47623
575.364	4517.34488
575.568	4330.79773
575.772	4697.43761
575.976	4488.0119
576.18	4517.34488
576.383	4431.42895
576.587	4634.63334
576.791	4462.8659
576.995	4655.57034
577.199	4634.63334
577.403	4680.69178
577.607	4634.63334
577.811	4743.4812
578.015	4485.91652
578.219	4852.26787
578.422	4691.1581
578.626	4768.59126
578.83	4529.91484
579.034	4831.35214
579.238	4699.53074
579.442	4902.45632
579.645	4674.41173
579.849	4940.089
580.053	4747.66643
580.257	4850.1764
580.46	4881.54607
580.664	5151.11154
580.868	4766.49888
581.071	4906.6381
581.275	4887.81939
581.479	5009.06289
581.682	4848.08491
581.886	5000.70376
582.09	4915.00137
582.293	5126.05193
582.497	4925.45495
582.7	5011.15262
582.904	5063.38826
583.107	4868.99882
583.311	4994.43416
583.515	5240.88097
583.718	4931.72682
583.922	5240.88097
584.125	4981.89435
584.329	5259.66446
584.532	5123.96348
584.735	5307.6581
584.939	5048.76374
585.142	5146.93517
585.346	4948.45081
585.549	5428.63051
585.753	5096.81148
585.956	5443.22529
586.159	5307.6581
586.363	5259.66446
586.566	5115.60943
586.769	5512.01371
586.973	5336.86556
587.176	5324.34864
587.379	5249.22942
587.582	5341.03768
587.786	5409.86411
587.989	5499.50863
588.192	5132.31715
588.395	5453.64942
588.599	5399.4375
588.802	5499.50863
589.005	5382.75372
589.208	5770.26204
589.411	5572.44298
589.615	5659.92609
589.818	5626.6041
590.021	5674.50256
590.224	5457.81891
590.427	5761.93711
590.63	5624.52127
590.833	5605.77479
591.036	5643.26585
591.239	5734.87849
591.442	5559.942
591.645	5851.41031
591.848	5714.06144
592.051	5882.61162
592.254	5564.10909
592.457	5520.34996
592.66	5626.6041
592.863	5878.45175
593.066	5612.02383
593.269	5689.07788
593.472	5682.83146
593.675	5849.33003
593.878	5882.61162
594.081	5874.29179
594.284	5734.87849
594.486	6177.72136
594.689	5899.25015
594.892	6086.32965
595.095	5876.37178
595.298	6152.80086
595.5	5834.76744
595.703	6092.56235
595.906	6017.75599
596.109	6090.48481
596.311	5922.12566
596.514	6134.10826
596.717	5978.26255
596.92	6192.25675
597.122	6026.06932
597.325	5969.94706
597.528	6098.79484
597.73	6389.40939
597.933	6308.49858
598.136	6418.44565
598.338	6190.18034
598.541	6522.10935
598.743	6210.94343
598.946	6345.84645
599.148	6248.31109
599.351	6308.49858
599.554	6354.14494
599.756	6269.06762
599.959	6376.96389
600.161	6219.24801
600.363	6306.42348
600.566	6530.39994
600.768	6416.37178
600.971	6582.20774
601.173	6435.03574
601.376	6665.0702
601.578	6287.7465
601.78	6700.27559
601.983	6352.07035
602.185	6580.1357
602.388	6497.23535
602.59	6513.81839
602.792	6480.65084
602.995	6517.96392
603.197	6364.51754
603.399	6598.78318
603.601	6331.32318
603.804	6549.05241
604.006	6600.85501
604.208	6565.63081
604.41	6567.70301
604.613	6642.2867
604.815	6331.32318
605.017	6772.73641
605.219	6590.49564
605.421	6754.1063
605.623	6662.99908
605.826	6890.68416
606.028	6634.0011
606.23	7010.62554
606.432	6828.61561
606.634	7004.42353
606.836	6580.1357
607.038	6789.29494
607.24	6805.85202
607.442	6760.31654
607.644	6696.13412
607.846	7058.16751
608.048	6538.69016
608.25	7208.98332
608.452	6683.70917
608.654	7051.96706
608.856	6685.78005
609.058	6872.06574
609.26	6538.69016
609.462	6938.25621
609.664	6845.16923
609.866	6932.05184
610.067	6948.59638
610.269	7167.67572
610.471	6876.20333
610.673	6987.88387
610.875	6836.8926
611.077	7010.62554
611.278	6836.8926
611.48	7248.21735
611.682	6863.7903
611.884	7213.1136
612.085	7047.83331
612.287	7082.96732
612.489	6874.13454
612.69	7089.16676
612.892	6903.09541
613.094	7188.33063
613.295	6851.37646
613.497	7219.30884
613.699	6983.74872
613.9	7101.56505
614.102	6901.02693
614.304	7287.44341
614.505	6973.41047
614.707	7262.66998
614.908	7029.23033
615.11	7260.60539
615.311	7010.62554
615.513	6973.41047
615.714	6938.25621
615.916	7142.88689
616.117	6890.68416
616.319	7213.1136
616.52	7014.76009
616.722	7188.33063
616.923	6946.52839
617.124	7326.66154
617.326	6859.65244
617.527	7332.85316
617.729	7099.49873
617.93	7184.19982
618.131	7196.59197
618.333	7231.69873
618.534	7252.34678
618.735	7367.93524
618.937	7006.49089
619.138	7448.39388
619.339	6944.46038
619.54	7272.99263
619.742	7126.35923
619.943	7200.72251
620.144	7138.75511
620.345	7400.94791
620.546	7384.44228
620.748	7504.07671
620.949	7239.95822
621.15	7493.76626
621.351	7128.42526
621.552	7359.6812
621.753	7134.62324
621.954	7452.51907
622.155	7054.0339
622.356	7431.89224
622.558	7351.42681
622.759	7574.1735
622.96	7016.82734
623.161	7392.69527
623.362	7578.29607
623.563	7456.64418
623.764	7456.64418
623.965	7788.43456
624.166	7376.18893
624.366	7464.89414
624.567	7198.65725
624.768	7565.9281
624.969	7444.2686
625.17	7636.00308
625.371	7489.64193
625.572	7555.62088
625.773	7355.55405
625.973	7613.33446
626.174	7518.51043
626.375	7631.8817
626.576	7489.64193
626.777	7749.30774
626.977	7607.15166
627.178	7724.59216
627.379	7473.14375
627.58	7673.09164
627.78	7646.30614
627.981	7543.2515
628.182	7693.69343
628.382	7671.03134
628.583	7456.64418
628.784	7802.8478
628.984	7656.60868
629.185	7771.96103
629.386	7592.72439
629.586	7609.21261
629.787	7687.51311
629.987	7710.17334
630.188	7864.60728
630.388	7893.42199
630.589	7547.37471
630.79	7798.72984
630.99	7341.10833
631.191	7724.59216
631.391	7656.60868
631.591	7753.42671
631.792	7876.95694
631.992	7868.72392
632.193	7555.62088
632.393	7961.32639
632.594	7706.05349
632.794	7928.40584
632.994	7671.03134
633.195	7629.82098
633.395	7710.17334
633.595	7856.37376
633.796	7868.72392
633.996	7944.86677
634.196	7856.37376
634.397	7658.66912
634.597	7743.12913
634.797	8060.0567
634.997	7827.55384
635.198	7979.8419
635.398	7648.36669
635.598	8060.0567
635.798	7864.60728
635.998	8086.78812
636.199	7946.9243
636.399	8247.10555
636.599	7936.63647
636.799	8230.6683
636.999	7883.13149
637.199	7911.94359
637.399	7613.33446
637.599	7983.95623
637.799	7893.42199
637.999	8185.45934
638.199	7961.32639
638.399	8197.79001
638.599	7745.18869
638.799	8144.35193
638.999	8263.54153
639.199	8300.5179
639.399	8084.73197
639.599	8245.05096
639.799	8041.54833
639.999	8152.57405
640.199	7953.09675
640.399	8302.57196
640.599	7747.24822
640.799	8321.05759
640.998	8082.67581
641.198	8337.48793
641.398	8115.57199
641.598	8240.94173
641.798	8185.45934
641.997	8388.82472
642.197	8166.96199
642.397	8181.34896
642.597	8140.24075
642.796	8312.84195
642.996	8249.16012
643.196	8397.03749
643.395	8497.61888
643.595	8189.56964
643.795	8245.05096
643.994	8386.77148
644.194	8304.626
644.394	8489.40987
644.593	8460.67596
644.793	8563.27998
644.992	8222.4492
645.192	8394.98432
645.392	8290.24733
645.591	8532.50375
645.791	8495.56666
645.99	8411.40908
646.19	8423.72684
646.389	8561.22837
646.589	8337.48793
646.788	8712.99747
646.987	8265.59594
647.187	8756.04862
647.386	8466.83354
647.586	8542.76297
647.785	8505.82758
647.984	8561.22837
648.184	8290.24733
648.383	8518.14006
648.582	8514.03597
648.782	8575.58928
648.981	8526.348
649.18	8559.17673
649.38	8665.8369
649.579	8835.9794
649.778	8427.8326
649.977	8702.74601
650.177	8616.61541
650.376	8667.88757
650.575	8725.29863
650.774	8889.25132
650.973	8526.348
651.173	8700.69566
651.372	8555.0734
651.571	8879.00766
651.77	8700.69566
651.969	8739.64914
652.168	8571.48626
652.367	8766.2977
652.566	8452.46558
652.765	8813.43761
652.964	8715.04771
653.163	8911.78579
653.362	8778.596
653.561	8788.84408
653.76	8977.32839
653.959	8883.10517
654.158	8917.93118
654.357	8993.71121
654.556	8665.8369
654.755	8885.15391
654.954	8698.64529
655.153	8879.00766
655.352	8967.08855
655.551	9003.94991
655.749	8872.86125
655.948	9048.99496
656.147	8919.97961
656.346	8983.47208
656.545	9065.37289
656.743	8995.75899
656.942	9010.09291
657.141	9128.8269
657.34	8952.75204
657.538	9196.35661
657.737	8987.56779
657.936	8735.54908
658.135	8983.47208
658.333	9149.29241
658.532	8790.89364
658.731	9153.38531
658.929	8922.02802
659.128	9051.04226
659.326	8965.04053
659.525	9153.38531
659.724	9100.1723
659.922	9024.42598
660.121	8811.38825
660.319	8930.22148
660.518	9022.37845
660.716	9104.26602
660.915	9214.77059
661.113	9235.22897
661.312	9061.27851
661.51	9312.9555
661.709	8985.51994
661.907	9325.22591
662.105	9026.47349
662.304	9458.11751
662.502	9190.21831
662.701	9051.04226
662.899	9184.07986
663.097	9347.72013
663.296	9218.8624
663.494	9214.77059
663.692	9177.94126
663.891	9100.1723
664.089	8770.39721
664.287	9267.95887
664.485	9241.36615
664.684	9445.85347
664.882	9067.42005
665.08	9222.95414
665.278	9296.59402
665.476	9321.13584
665.675	9091.98466
665.873	9239.32044
666.071	9153.38531
666.269	9388.61359
666.467	8991.66342
666.665	9110.40648
666.863	8930.22148
667.061	9137.01331
667.259	9081.74971
667.457	9190.21831
667.655	8973.23251
667.853	9151.33887
668.051	9001.9022
668.249	9378.39084
668.447	9239.32044
668.645	9351.80977
668.843	9263.86787
669.041	9257.73124
669.239	8954.80017
669.437	9120.64022
669.635	9312.9555
669.833	9257.73124
670.031	9153.38531
670.229	9349.76496
670.426	9173.84877
670.624	9298.63927
670.822	8969.13656
671.02	9190.21831
671.218	9087.89073
671.415	9447.89752
671.613	9241.36615
671.811	9288.41288
672.009	9231.13743
672.206	9378.39084
672.404	9353.85457
672.602	9509.21143
672.799	9290.45819
672.997	9312.9555
673.195	8917.93118
673.392	9394.74705
673.59	9206.58677
673.788	9267.95887
673.985	8887.20262
674.183	9239.32044
674.38	9298.63927
674.578	9353.85457
674.775	9312.9555
674.973	9394.74705
675.17	9202.49476
675.368	9411.10221
675.565	9263.86787
675.763	9501.03707
675.96	9257.73124
676.158	9296.59402
676.355	8903.59168
676.553	9513.29851
676.75	9190.21831
676.947	9323.18089
677.145	9067.42005
677.342	9265.91338
677.539	8860.56795
677.737	9255.68566
677.934	8813.43761
678.131	9337.49573
678.329	9118.5935
678.526	9345.67528
678.723	9085.84374
678.92	9407.01352
679.118	9415.19084
679.315	9380.43542
679.512	9198.40268
679.709	9233.18321
679.906	8993.71121
680.104	9192.26443
680.301	9057.18406
680.498	9263.86787
680.695	8807.28947
680.892	9218.8624
681.089	9003.94991
681.286	9427.45633
681.483	9014.18816
681.68	9276.14068
681.877	9073.56144
682.075	9329.31592
682.272	9098.12542
682.469	9333.40586
682.665	9126.78026
682.862	9419.2794
683.059	9222.95414
683.256	9208.63275
683.453	9227.04582
683.65	9241.36615
683.847	9038.75819
684.044	9247.50318
684.241	9096.07851
684.438	9496.9498
684.635	9132.92014
684.831	9435.633
685.028	9253.64007
685.225	9255.68566
685.422	9161.5709
685.619	9104.26602
685.815	9198.40268
686.012	9458.11751
686.209	8827.78264
686.405	9267.95887
686.602	8891.29999
686.799	9085.84374
686.996	8969.13656
687.192	9212.72466
687.389	8956.84828
687.586	9231.13743
687.782	9071.51433
687.979	9315.00061
688.175	9003.94991
688.372	9157.47814
688.568	8891.29999
688.765	9014.18816
688.962	9216.81651
689.158	9280.23148
689.355	8932.2698
689.551	9212.72466
689.748	9061.27851
689.944	9302.7297
690.14	8891.29999
690.337	9063.32571
690.533	9257.73124
690.73	8960.94444
690.926	9151.33887
691.123	8911.78579
691.319	9014.18816
691.515	9447.89752
691.712	9024.42598
691.908	9151.33887
692.104	9214.77059
692.301	9067.42005
692.497	8936.36639
692.693	8979.37631
692.889	8874.91007
693.086	8928.17314
693.282	9032.61592
693.478	9145.19945
693.674	9091.98466
693.87	8813.43761
694.067	8790.89364
694.263	9042.85295
694.459	9147.24594
694.655	9165.66359
694.851	9206.58677
695.047	9094.03159
695.243	8858.519
695.439	9182.03368
695.635	9026.47349
695.831	9139.05987
696.027	8862.61687
696.224	8881.05643
696.42	9096.07851
696.615	9171.8025
696.811	8893.34865
697.007	9104.26602
697.203	9120.64022
697.399	9038.75819
697.595	9134.96674
697.791	8879.00766
697.987	8838.02854
698.183	9132.92014
698.379	8989.61561
698.575	9341.58554
698.77	9091.98466
698.966	8977.32839
699.162	9042.85295
699.358	9067.42005
699.554	8667.88757
699.749	9077.65561
699.945	8928.17314
700.141	9089.9377
700.337	8858.519
700.532	8977.32839
700.728	8676.09003
700.924	8899.49453
701.119	8686.3427
701.315	8624.81974
701.511	8626.87078
701.706	8684.2922
701.902	8553.02171
702.097	8899.49453
702.293	8608.41079
702.489	8842.12678
702.684	8727.34875
702.88	9032.61592
703.075	8799.0917
703.271	9059.2313
703.466	8876.95887
703.662	8813.43761
703.857	8979.37631
704.053	9120.64022
704.248	8760.14831
704.443	8924.07641
704.639	8797.04221
704.834	9159.52453
705.03	8854.42105
705.225	8969.13656
705.42	8815.48696
705.616	9110.40648
705.811	8743.74912
706.006	8985.51994
706.202	8758.09847
706.397	8993.71121
706.592	8889.25132
706.787	9089.9377
706.983	8764.24792
707.178	9184.07986
707.373	8602.25712
707.568	8823.68415
707.763	8776.54633
707.959	8932.2698
708.154	8682.24169
708.349	8815.48696
708.544	8702.74601
708.739	8917.93118
708.934	8930.22148
709.129	8944.55936
709.324	8862.61687
709.519	8797.04221
709.714	8692.49408
709.909	8940.46291
710.104	8612.51314
710.299	8721.19832
710.494	8829.83186
710.689	8862.61687
710.884	8731.44896
711.079	8928.17314
711.274	8756.04862
711.469	9030.56846
711.664	9091.98466
711.859	8907.68877
712.054	8774.49664
712.249	8924.07641
712.443	8954.80017
712.638	8952.75204
712.833	8542.76297
713.028	8952.75204
713.223	8563.27998
713.417	8799.0917
713.612	8786.7945
713.807	8887.20262
714.002	8922.02802
714.196	8936.36639
714.391	8555.0734
714.586	8643.27838
714.78	8682.24169
714.975	8602.25712
715.17	8622.76869
715.364	8901.54311
715.559	8729.39886
715.754	8708.89694
715.948	8760.14831
716.143	8690.44364
716.337	8436.0439
716.532	8915.88273
716.726	8930.22148
716.921	8977.32839
717.115	8604.30836
717.31	8708.89694
717.504	8509.93181
717.699	8719.14813
717.893	8522.24407
718.088	8608.41079
718.282	8665.8369
718.476	8852.37205
718.671	8661.73552
718.865	8700.69566
719.059	8296.40973
719.254	8723.24848
719.448	8509.93181
719.642	8704.79634
719.837	8355.97057
720.031	8768.34746
720.225	8288.19315
720.419	8776.54633
720.614	8378.55833
720.808	8546.86652
721.002	8273.81339
721.196	8633.02377
721.39	8583.79511
721.585	8321.05759
721.779	8431.93829
721.973	8600.20586
722.167	8158.74043
722.361	8421.67393
722.555	8374.45164
722.749	8329.27291
722.943	8399.09063
723.137	8376.505
723.331	8201.90007
723.525	8345.70263
723.719	8327.21911
723.913	8563.27998
724.107	8197.79001
724.301	8526.348
724.495	8208.06502
724.689	8452.46558
724.883	8222.4492
725.077	8544.81475
725.271	8544.81475
725.465	8370.34487
725.659	8265.59594
725.853	8331.3267
726.046	8282.03051
726.24	8364.18457
726.434	7813.14235
726.628	8380.61165
726.822	8125.85099
727.015	8569.43472
727.209	8082.67581
727.403	8310.78799
727.596	8306.68001
727.79	8333.38046
727.984	8456.57081
728.177	8717.09793
728.371	8479.14819
728.565	8626.87078
728.758	8415.51508
728.952	8452.46558
729.146	8464.78103
729.339	8768.34746
729.533	8472.99095
729.726	8805.24006
729.92	8306.68001
730.113	8518.14006
730.307	8304.626
730.5	8374.45164
730.694	8306.68001
730.887	8390.87794
731.081	8351.86345
731.274	8450.41294
731.468	8331.3267
731.661	8374.45164
731.854	8358.0241
732.048	8411.40908
732.241	8187.5145
732.435	8226.55879
732.628	8251.21466
732.821	8228.61356
733.014	8230.6683
733.208	8164.90663
733.401	8210.11996
733.594	8119.68365
733.788	8440.14944
733.981	8374.45164
734.174	8251.21466
734.367	8121.73945
734.56	8187.5145
734.754	8392.93114
734.947	8314.89589
735.14	8372.39827
735.333	8592.00064
735.526	8624.81974
735.719	8068.28211
735.912	8298.46383
736.105	8097.06852
736.298	7973.67025
736.491	8014.81112
736.684	8127.90673
736.877	8166.96199
737.07	8347.75626
737.263	8092.95642
737.456	8156.68499
737.649	8047.71797
737.842	8132.01815
738.035	8193.67986
738.228	8132.01815
738.421	8099.12455
738.614	8335.4342
738.807	8148.46303
739	8173.12795
739.192	8195.73495
739.385	8076.50721
739.578	8440.14944
739.771	8282.03051
739.964	8288.19315
740.156	8329.27291
740.349	8064.16945
740.542	8119.68365
740.735	8014.81112
740.927	8125.85099
741.12	8012.75427
741.313	7990.12758
741.505	8173.12795
741.698	8226.55879
741.891	8208.06502
742.083	8319.00371
742.276	8226.55879
742.468	8208.06502
742.661	7938.69408
742.854	8088.84424
743.046	7961.32639
743.239	7971.61299
743.431	8199.84505
743.624	8214.22979
743.816	8076.50721
744.009	7924.2904
744.201	7909.88572
744.393	8066.22579
744.586	7979.8419
744.778	7986.01337
744.971	7914.00145
745.163	8099.12455
745.355	7852.25688
745.548	8004.52667
745.74	7994.2417
745.932	7761.66439
746.125	7934.57884
746.317	7959.26901
746.509	7895.48003
746.702	8125.85099
746.894	7868.72392
747.086	8025.09507
747.278	8111.46025
747.471	7776.07954
747.663	8078.56343
747.855	7951.03928
748.047	8138.18513
748.239	7817.26002
748.431	8132.01815
748.623	8025.09507
748.815	8045.66144
749.008	8238.88708
749.2	8271.75905
749.392	8179.29374
749.584	8123.79523
749.776	8226.55879
749.968	8267.65033
750.16	8234.77773
750.352	8292.30148
750.544	8064.16945
750.736	8218.33954
750.928	8086.78812
751.12	7903.71197
751.311	7893.42199
751.503	7827.55384
751.695	7712.23324
751.887	7844.02287
752.079	7868.72392
752.271	7691.63335
752.463	7901.65402
752.654	7741.06955
752.846	7905.76991
753.038	7852.25688
753.23	7977.7847
753.421	7794.61179
753.613	7732.83102
753.805	7827.55384
753.997	7924.2904
754.188	7811.08348
754.38	8000.41274
754.572	7771.96103
754.763	7874.89871
754.955	7557.68237
755.146	7893.42199
755.338	7924.2904
755.53	7835.78852
755.721	7911.94359
755.913	7829.61254
756.104	7786.37544
756.296	7732.83102
756.487	7701.93356
756.679	7736.95033
756.87	7590.66326
757.062	7654.54822
757.253	7928.40584
757.445	7438.08052
757.636	7753.42671
757.827	7716.35296
758.019	7736.95033
758.21	7794.61179
758.401	7724.59216
758.593	7804.90675
758.784	7351.42681
758.975	7353.49044
759.167	7640.12437
759.358	7732.83102
759.549	7481.39301
759.74	7438.08052
759.932	7359.6812
760.123	7417.45216
760.314	7343.17207
760.505	7436.01778
760.696	7339.04457
760.888	7629.82098
761.079	7299.82894
761.27	7479.33073
761.461	7334.91698
761.652	7365.87176
761.843	7320.46973
762.034	7493.76626
762.225	7105.69764
762.416	7357.61764
762.607	7142.88689
762.798	7464.89414
762.989	7308.08552
763.18	7512.32468
763.371	7423.6409
763.562	7386.50556
763.753	7085.03382
763.944	7415.38921
764.135	7175.93795
764.326	7448.39388
764.517	7270.92815
764.708	7532.9431
764.899	7279.18596
765.089	7277.12154
765.28	7014.76009
765.471	7252.34678
765.662	7070.56782
765.853	7388.56882
766.043	7025.09609
766.234	7111.89635
766.425	6890.68416
766.615	7204.85296
766.806	6936.18811
766.997	7186.26524
767.187	6766.52658
767.378	7159.41313
767.569	6903.09541
767.759	7180.06893
767.95	6936.18811
768.141	6975.47817
768.331	6894.82133
768.522	7060.23429
768.712	6882.40953
768.903	6888.61553
769.093	6787.22521
769.284	6894.82133
769.474	6929.98367
769.665	6994.08641
769.855	6969.27502
770.046	7153.21596
770.236	6729.26328
770.426	6942.39234
770.617	6979.61349
770.807	6903.09541
770.998	6836.8926
771.188	6749.96603
771.378	6625.71513
771.569	6729.26328
771.759	6615.35715
771.949	6714.77
772.139	6708.55825
772.33	6859.65244
772.52	6747.89586
772.71	6828.61561
772.9	6596.71133
773.09	6607.07035
773.281	6764.45659
773.471	6673.35442
773.661	6480.65084
773.851	6546.98001
774.041	6385.26098
774.231	6807.92155
774.421	6542.83513
774.611	6379.0382
774.802	6343.77176
774.992	6604.99859
775.182	6488.94328
775.372	6532.47253
775.562	6449.55086
775.752	6443.33023
775.942	6416.37178
776.131	6553.19715
776.321	6123.72267
776.511	6526.25469
776.701	6416.37178
776.891	6474.43126
777.081	6573.91946
777.271	6598.78318
777.461	6551.12479
777.651	6252.46259
777.84	6306.42348
778.03	6401.85406
778.22	6310.57366
778.41	6476.50447
778.599	6464.06483
778.789	6511.74559
778.979	6327.17346
779.169	6159.0313
779.358	6250.38685
779.548	6248.31109
779.738	6073.86362
779.927	6100.87229
780.117	6273.21865
780.307	6260.76529
780.496	5992.81376
780.686	6372.8152
780.875	5951.23583
781.065	6181.87444
781.254	6032.30406
781.444	6194.33315
781.633	6053.08502
781.823	6123.72267
782.012	6115.41377
782.202	6235.85605
782.391	5795.23456
782.581	6036.46044
782.77	5888.85125
782.96	6011.52075
783.149	5774.42436
783.338	6023.99102
783.528	5830.60648
783.717	6003.20677
783.906	5909.64847
784.096	5876.37178
784.285	5909.64847
784.474	5986.57767
784.663	5903.40955
784.853	5884.69152
785.042	5876.37178
785.231	5974.10486
785.42	5992.81376
785.61	5751.53042
785.799	5859.73118
785.988	5982.42016
786.177	5607.85782
786.366	5890.93107
786.555	5668.25564
786.744	5616.18974
786.933	5478.66495
787.122	5934.60201
787.312	5784.82976
787.501	5770.26204
787.69	5568.27608
787.879	5716.14325
788.068	5518.26594
788.257	5591.19286
788.445	5599.52553
788.634	5695.32409
788.823	5572.44298
789.012	5749.44901
789.201	5245.05524
789.39	5528.68584
789.579	5389.01031
789.768	5603.69172
789.957	5455.73418
790.145	5664.09091
790.334	5557.85842
790.523	5524.51795
790.712	5253.4035
790.9	5551.60754
791.089	5436.97053
791.278	5524.51795
791.467	5686.99576
791.655	5865.97158
791.844	5466.15761
792.033	5445.31016
792.221	5142.75871
792.41	5601.60864
792.599	5259.66446
792.787	5543.27271
792.976	5643.26585
793.164	5732.79689
793.353	5359.81106
793.541	5424.46036
793.73	5474.49593
793.918	5305.57168
794.107	5165.72811
794.295	5576.60979
794.484	5507.84545
794.672	5578.69316
794.861	5245.05524
795.049	5307.6581
795.238	5374.41126
795.426	5288.87945
795.614	5311.83088
795.803	5570.35955
795.991	5311.83088
796.179	5349.38164
796.368	5324.34864
796.556	5272.18573
796.744	5115.60943
796.932	5320.17615
797.121	5128.14036
797.309	5201.22072
797.497	5115.60943
797.685	5347.29569
797.874	5359.81106
798.062	5222.09559
798.25	4797.88222
798.438	5075.92266
798.626	4988.16436
798.814	5146.93517
799.002	4877.36374
799.19	5109.34366
799.378	5169.90406
799.566	5084.27847
799.755	5019.51129
799.943	5171.992
800.131	4797.88222
800.318	5117.69798
800.506	5142.75871
800.694	5019.51129
800.882	4716.27494
801.07	5046.67443
801.258	4898.27445
801.446	5199.13311
801.634	4793.69807
801.822	5078.01165
802.01	4960.99283
802.197	5284.70616
802.385	4956.81224
802.573	5153.19969
802.761	4977.71423
802.949	5144.84695
803.136	5013.24232
803.324	5176.16781
803.512	4902.45632
803.699	5320.17615
803.887	4967.26353
804.075	5249.22942
804.262	4915.00137
804.45	5268.01207
804.638	4973.53402
804.825	5117.69798
805.013	5017.42166
805.201	5316.00356
805.388	5107.25502
805.576	5107.25502
805.763	5052.94229
805.951	5144.84695
806.138	5142.75871
806.326	4881.54607
806.513	4772.77596
806.701	5027.86959
806.888	5002.79357
807.075	5299.31227
807.263	5159.46401
807.45	5098.90024
807.638	5282.61948
807.825	5224.18294
808.012	4915.00137
808.2	5222.09559
808.387	5182.43135
808.574	5126.05193
808.761	5140.67044
808.949	5123.96348
809.136	5092.6339
809.323	5357.72522
809.51	5006.97314
809.698	5149.02337
809.885	4931.72682
810.072	5117.69798
810.259	5157.37593
810.446	5286.79282
810.633	5255.49051
810.82	5247.14234
811.008	4935.90796
811.195	5265.9252
811.382	5157.37593
811.569	5228.35759
811.756	5134.40551
811.943	5199.13311
812.13	5048.76374
812.317	5213.74592
812.504	5004.88337
812.691	5265.9252
812.878	5382.75372
813.064	5228.35759
813.251	5165.72811
813.438	5240.88097
813.625	5027.86959
813.812	5247.14234
813.999	4845.99339
814.186	5182.43135
814.372	5057.12075
814.559	5224.18294
814.746	4906.6381
814.933	5025.78005
815.12	5115.60943
815.306	5366.06843
815.493	4952.63157
815.68	5197.04547
815.866	5044.58509
816.053	5295.13921
816.24	4973.53402
816.426	5126.05193
816.613	4950.5412
816.799	5073.83365
816.986	5265.9252
817.173	5334.77947
817.359	4864.81622
817.546	5055.03153
817.732	4965.17331
817.919	5025.78005
818.105	4906.6381
818.292	5015.332
818.478	4839.71871
818.665	5011.15262
818.851	4979.8043
819.037	5157.37593
819.224	5038.31696
819.41	5174.07992
819.597	5040.40636
819.783	5002.79357
819.969	4992.34425
820.156	5132.31715
820.342	4871.09009
820.528	5071.74462
820.714	5078.01165
820.901	4990.25432
821.087	4885.7283
821.273	5174.07992
821.459	4994.43416
821.646	5326.43485
821.832	5201.22072
822.018	5276.3593
822.204	4979.8043
822.39	5165.72811
822.576	5059.20994
822.762	5324.34864
822.948	4799.97426
823.134	4994.43416
823.32	4825.07697
823.507	4866.90753
823.693	4712.08903
823.879	5153.19969
824.065	4960.99283
824.25	4889.91045
824.436	4552.95768
824.622	5011.15262
824.808	4571.80892
824.994	4873.18133
825.18	4611.60005
825.366	4979.8043
825.552	4622.07007
825.738	4785.3295
825.923	4712.08903
826.109	4969.35371
826.295	4686.97164
826.481	4894.0925
826.667	4693.25129
826.852	4774.86827
827.038	4605.31778
827.224	4718.36787
827.409	4423.04493
827.595	4705.80998
827.781	4594.84687
827.966	4843.90185
828.152	4397.89078
828.338	4666.038
828.523	4311.92381
828.709	4609.50598
828.894	4454.4832
829.08	4496.39319
829.266	4462.8659
829.451	4724.6465
829.637	4366.44368
829.822	4645.10212
830.008	4429.33298
830.193	4588.56406
830.378	4381.1196
830.564	4766.49888
830.749	4492.20259
830.935	4682.78509
831.12	4458.67459
831.305	4647.19581
831.491	4257.38937
831.676	4353.86347
831.861	4337.08864
832.047	4280.46341
832.232	4228.01869
832.417	4370.63691
832.602	4437.71674
832.788	4454.4832
832.973	4186.05333
833.158	4511.05961
833.343	4353.86347
833.528	4464.96152
833.714	4439.81262
833.899	4446.10014
834.084	4110.49441
834.269	4152.47495
834.454	4097.89862
834.639	4376.92659
834.824	4085.30208
835.009	4223.82253
835.194	4234.31276
835.379	4318.21531
835.564	4160.87005
835.749	4387.40896
835.934	4297.24289
836.119	4406.27585
836.304	4303.53484
836.489	4146.17841
836.674	4030.70842
836.859	4223.82253
837.044	4169.26482
837.228	4215.42997
837.413	3896.26504
837.598	4244.80245
837.783	3976.10085
837.968	4244.80245
838.152	3765.94464
838.337	4253.19382
838.522	3854.23452
838.707	4087.40155
838.891	4028.60839
839.076	4068.50552
839.261	3843.72565
839.445	3976.10085
839.63	3673.41359
839.815	4106.2959
839.999	3812.19605
840.184	4072.70478
840.368	3892.06235
840.553	4148.27728
840.737	3885.75816
840.922	3850.03103
841.106	3610.30301
841.291	4095.79925
841.475	3631.34176
841.66	4005.50665
841.844	3673.41359
842.029	3816.40026
842.213	3673.41359
842.397	3837.42009
842.582	3700.75619
842.766	3795.37846
842.951	3528.23405
843.135	3868.94611
843.319	3555.59351
843.504	3606.09503
843.688	3505.08133
843.872	3850.03103
844.056	3700.75619
844.241	3892.06235
844.425	3765.94464
844.609	3845.82746
844.793	3570.32423
844.977	3728.09554
845.161	3450.34795
845.346	3763.84207
845.53	3597.67886
845.714	3622.92649
845.898	3540.86188
846.082	3622.92649
846.266	3606.09503
846.45	3578.74137
846.634	3422.9767
846.818	3671.31017
847.002	3521.91989
847.186	3728.09554
847.37	3557.69795
847.554	3789.07153
847.738	3500.8715
847.922	3574.53284
848.106	3700.75619
848.29	3625.03033
848.473	3465.08506
848.657	3561.90678
848.841	3307.14232
849.025	3454.55864
849.209	3279.75564
849.392	3142.77977
849.576	3144.88762
849.76	3397.70827
849.944	3227.0809
850.127	3319.78135
850.311	3412.4485
850.495	3677.62035
850.678	3326.10064
850.862	3513.50076
851.046	3195.47105
851.229	3412.4485
851.413	3187.04114
851.596	3473.50587
851.78	3260.79394
851.964	3330.31341
852.147	3113.26824
852.331	3243.93796
852.514	3121.70043
852.698	3294.50267
852.881	2980.42826
853.065	3060.56133
853.248	3176.50337
853.431	3085.86188
853.615	3014.17119
853.798	3237.61669
853.982	2868.62763
854.165	3100.61948
854.348	2822.20794
854.532	3218.65197
854.715	2889.72522
854.898	3168.07286
855.081	2720.90553
855.265	2959.33696
855.448	2906.60225
855.631	3054.23584
855.814	2936.13482
855.997	3195.47105
856.181	2906.60225
856.364	3109.05205
856.547	2995.19127
856.73	3128.0244
856.913	2668.13177
857.096	3058.45285
857.279	2872.84726
857.462	2995.19127
857.645	2995.19127
857.828	2898.16385
858.011	2756.78702
858.194	2990.97334
858.377	2636.46369
858.56	2758.89757
858.743	2685.02025
858.926	2758.89757
859.109	2680.79821
859.292	2752.56586
859.475	2672.35397
859.658	2813.76727
859.841	2543.55474
860.023	2659.68723
860.206	2442.17381
860.389	2693.46418
860.572	2568.89585
860.755	2617.4615
860.937	2463.29696
861.12	2554.11374
861.303	2435.83666
861.486	2621.6843
861.668	2383.02334
861.851	2573.1192
862.034	2655.46488
862.216	2687.13125
862.399	2513.98799
862.581	2482.30685
862.764	2306.96098
862.947	2526.65973
863.129	2596.34678
863.312	2450.6232
863.494	2283.7172
863.677	2587.90056
863.859	2306.96098
864.042	2421.04959
864.224	2249.90605
864.406	2347.1066
864.589	2249.90605
864.771	2469.63369
864.954	2273.15147
865.136	2387.24864
865.318	2197.07155
865.501	2199.18503
865.683	2182.27692
865.865	2471.74591
866.048	2074.47563
866.23	2281.60407
866.412	2395.69913
866.594	2317.52596
866.777	2277.37779
866.959	2435.83666
867.141	2222.43279
867.323	2135.7769
867.505	2260.47228
867.687	2313.3
867.869	2055.44984
868.052	2142.11804
868.234	1918.02535
868.416	2298.50883
868.598	2036.42347
868.78	2281.60407
868.962	2154.80011
869.144	2366.12171
869.326	2133.66317
869.508	2393.58653
869.69	2116.75305
869.872	2224.54617
870.054	2000.48327
870.236	2344.99377
870.417	2093.50084
870.599	2404.14945
870.781	2199.18503
870.963	2469.63369
871.145	2154.80011
871.327	2114.63926
871.508	2049.10778
871.69	2161.14104
871.872	2042.76566
872.054	2165.36828
872.235	2112.52545
872.417	2106.18398
872.599	1913.7965
872.78	2218.206
872.962	2038.53754
873.144	2224.54617
873.325	1998.36909
873.507	2159.0274
873.689	1903.22427
873.87	2180.16337
874.052	2123.09441
874.233	2182.27692
874.415	1994.14069
874.596	2120.98063
874.778	1884.19393
874.959	2097.72859
875.141	1934.94053
875.322	1989.91227
875.503	1748.85587
875.685	2023.73892
875.866	1886.30843
876.048	2260.47228
876.229	1837.67356
876.41	1972.99833
876.592	1972.99833
876.773	2002.59746
876.954	1689.64037
877.136	1970.88406
877.317	1679.06591
877.498	2021.6248
877.679	1759.42978
877.86	1975.11259
878.042	1854.59033
878.223	2120.98063
878.404	1877.85038
878.585	2006.8258
878.766	1877.85038
878.947	1937.05491
879.128	1759.42978
879.309	1962.42691
879.49	1723.47812
879.672	2032.19531
879.853	1873.62133
880.034	1932.82616
880.215	1875.73586
880.396	2173.82267
880.576	1934.94053
880.757	2053.33582
880.938	1909.56762
881.119	2213.97918
881.3	1672.72121
881.481	2036.42347
881.662	2066.0198
881.843	2055.44984
882.023	1920.13977
882.204	2004.71163
882.385	2089.27307
882.566	2114.63926
882.747	2015.28241
882.927	2104.07014
883.108	2042.76566
883.289	1998.36909
883.469	2095.61472
883.65	2154.80011
883.831	2023.73892
884.011	2173.82267
884.192	1928.59738
884.373	2190.73104
884.553	1970.88406
884.734	2175.93624
884.914	2133.66317
885.095	2239.33959
885.275	1928.59738
885.456	2313.3
885.636	2036.42347
885.817	2152.68645
885.997	2163.25466
886.178	2146.34543
886.358	1956.08399
886.538	2222.43279
886.719	1886.30843
886.899	2049.10778
887.08	1884.19393
887.26	2292.16962
887.44	2106.18398
887.621	2260.47228
887.801	1911.68206
887.981	2188.61753
888.161	2082.93136
888.342	2239.33959
888.522	2046.99374
888.702	2101.9563
888.882	1962.42691
889.062	2165.36828
889.242	2021.6248
889.423	2061.79183
889.603	2125.20818
889.783	2188.61753
889.963	2011.05412
890.143	2230.88626
890.323	2175.93624
890.503	2247.79278
890.683	1994.14069
890.863	2226.65954
891.043	2036.42347
891.223	2129.43569
891.403	1858.81948
891.583	2173.82267
891.763	2002.59746
891.943	2032.19531
892.122	2019.51068
892.302	2211.86576
892.482	1877.85038
892.662	2266.81192
892.842	1951.85535
893.022	2171.70908
893.201	1998.36909
893.381	2171.70908
893.561	1824.98578
893.741	1985.68382
893.92	1816.52717
894.1	2078.70351
894.28	1994.14069
894.459	1945.51234
894.639	1791.15092
894.819	2066.0198
894.998	1827.10042
895.178	2097.72859
895.357	1776.34783
895.537	2019.51068
895.716	1928.59738
895.896	1841.90278
896.075	1717.1336
896.255	1820.75648
896.434	1615.6178
896.614	1911.68206
896.793	1717.1336
896.973	1884.19393
897.152	1522.55741
897.331	1706.55934
897.511	1630.42255
897.69	1860.93404
897.87	1759.42978
898.049	1765.77408
898.228	1725.59295
898.407	1668.49139
898.587	1664.26156
898.766	1810.18317
898.945	1602.92793
899.124	1649.45707
899.304	1596.58297
899.483	1621.96271
899.662	1505.63708
899.841	1602.92793
900.02	1393.53948
900.199	1605.04292
900.378	1336.43373
900.557	1452.76085
900.737	1336.43373
900.916	1435.84043
901.095	1427.38022
901.274	1461.22106
901.453	1401.99965
901.632	1547.93778
901.811	1347.0088
901.989	1366.04401
902.168	1408.34479
902.347	1395.65452
902.526	1249.71993
902.705	1545.82276
902.884	1454.8759
903.063	1465.45116
903.242	1374.50414
903.42	1497.1769
903.599	1378.73421
903.778	1258.17964
903.957	1158.78116
904.135	1382.96428
904.314	1175.69951
904.493	1148.20733
904.672	1198.96263
904.85	1184.15878
905.029	998.07193
905.207	1186.2736
905.386	1063.6207
905.565	1194.73294
905.743	1053.04795
905.922	1122.83055
906.1	1122.83055
906.279	1292.01889
906.457	1065.73527
906.636	1167.24031
906.814	962.12838
906.993	1080.5374
907.171	968.47122
907.35	1055.16249
907.528	1021.33052
907.707	911.388
907.885	936.75766
908.063	957.89985
908.242	886.01945
908.42	991.72881
908.598	797.23912
908.777	960.01411
908.955	866.9938
909.133	998.07193
909.311	793.01189
909.49	795.1255
909.668	769.7628
909.846	902.93169
910.024	820.48959
910.202	877.56352
910.38	727.49485
910.559	898.70358
910.737	873.33561
910.915	801.4664
911.093	818.37586
911.271	936.75766
911.449	845.85499
911.627	877.56352
911.805	820.48959
911.983	1040.36082
912.161	911.388
912.339	1048.81888
912.517	820.48959
912.695	936.75766
912.872	856.42429
913.05	1012.87276
913.228	852.19655
913.406	966.35693
913.584	881.79147
913.762	1021.33052
913.939	928.30098
914.117	962.12838
914.295	871.22166
914.473	1014.98719
914.65	953.67136
914.828	998.07193
915.006	979.04275
915.184	896.58954
915.361	793.01189
915.539	972.69981
915.716	862.76597
915.894	964.24265
916.072	843.74116
916.249	987.5001
916.427	881.79147
916.604	871.22166
916.782	860.65207
916.959	907.15983
917.137	738.06144
917.314	995.95755
917.492	812.03474
917.669	924.07269
917.847	818.37586
918.024	886.01945
918.201	710.58885
918.379	970.58551
918.556	828.94458
918.733	894.4755
918.911	767.6493
919.088	847.96884
919.265	733.83477
919.442	845.85499
919.62	668.32696
919.797	822.60332
919.974	818.37586
920.151	873.33561
920.328	750.74171
920.506	915.6162
920.683	653.53639
920.86	649.31062
921.037	615.5062
921.214	687.34425
921.391	626.06974
921.568	725.38156
921.745	657.76221
921.922	769.7628
922.099	672.55294
922.276	776.10334
922.453	607.0556
922.63	674.66595
922.807	666.21399
922.984	623.95701
923.161	522.5611
923.338	611.28088
923.514	524.6732
923.691	666.21399
923.868	585.92998
924.045	539.45826
924.222	560.58096
924.399	619.73158
924.575	438.08931
924.752	613.39353
924.929	535.23389
925.105	613.39353
925.282	547.90718
925.459	634.5208
925.635	533.12172
925.812	543.68269
925.989	459.205
926.165	655.64929
926.342	533.12172
926.518	598.60519
926.695	484.54585
926.871	594.38007
927.048	362.08609
927.224	423.30926
927.401	231.24458
927.577	531.00957
927.754	404.30748
927.93	488.76953
928.107	482.43403
928.283	423.30926
928.459	414.86386
928.636	509.88883
928.812	457.09336
928.988	486.65768
929.165	366.30793
929.341	450.75854
929.517	326.20327
929.693	454.98174
929.87	362.08609
930.046	433.86636
930.222	250.23327
930.398	429.64347
930.574	395.86267
930.751	353.64262
930.927	397.97385
931.103	404.30748
931.279	334.64583
931.455	351.5318
931.631	349.42099
931.807	457.09336
931.983	281.88452
932.159	421.19789
932.335	277.66411
932.511	311.42946
932.687	309.31899
932.863	288.21528
933.039	319.87153
933.215	330.42451
933.391	381.08489
933.566	345.19943
933.742	328.31388
933.918	332.53516
934.094	233.35436
934.27	241.79366
934.445	203.81928
934.621	281.88452
934.797	300.87729
934.973	256.56318
935.148	180.61589
935.324	235.46415
935.5	129.99903
935.675	203.81928
935.851	142.6521
936.027	193.27198
936.202	125.7815
936.378	218.58633
936.553	189.0532
936.729	170.06972
936.904	125.7815
937.08	218.58633
937.255	159.52406
937.431	129.99903
937.606	96.26129
937.782	148.97893
937.957	125.7815
938.133	195.3814
938.308	161.63315
938.483	98.36974
938.659	108.91229
938.834	136.32547
939.009	83.6111
939.185	148.97893
939.36	60.42118
939.535	81.50281
939.71	106.80373
939.886	92.04447
940.061	56.20513
940.236	113.12946
940.411	68.85356
940.586	146.86997
940.761	98.36974
940.937	81.50281
941.112	108.91229
941.287	127.89025
941.462	98.36974
941.637	85.71941
941.812	119.45538
941.987	62.52924
942.162	94.15287
942.337	77.2863
942.512	111.02086
942.687	127.89025
942.862	33.01848
943.037	51.98916
943.212	100.4782
943.386	83.6111
943.561	54.09713
943.736	49.88122
943.911	58.31314
944.086	77.2863
944.26	68.85356
944.435	49.88122
944.61	75.17808
944.785	134.21663
944.959	104.6952
945.134	43.55752
945.309	119.45538
945.483	56.20513
945.658	56.20513
945.833	39.34183
946.007	111.02086
946.182	134.21663
946.357	16.15725
946.531	83.6111
946.706	14.04971
946.88	70.96171
947.055	66.74543
947.229	41.44967
947.404	153.19692
947.578	62.52924
947.752	62.52924
947.927	64.63732
948.101	41.44967
948.276	70.96171
948.45	138.43433
948.624	96.26129
948.799	49.88122
948.973	75.17808
949.147	140.5432
949.321	70.96171
949.496	49.88122
949.67	108.91229
949.844	108.91229
950.018	83.6111
950.193	119.45538
950.367	64.63732
950.541	96.26129
950.715	75.17808
950.889	43.55752
951.063	146.86997
951.237	89.9361
951.411	30.91075
951.585	193.27198
951.759	77.2863
951.933	167.96055
952.107	68.85356
952.281	66.74543
952.455	7.72721
952.629	115.23808
952.803	54.09713
952.977	94.15287
953.151	108.91229
953.325	58.31314
953.499	41.44967
953.672	77.2863
953.846	85.71941
954.02	134.21663
954.194	144.76102
954.368	121.56407
954.541	85.71941
954.715	79.39455
954.889	92.04447
955.062	201.70978
955.236	70.96171
955.41	75.17808
955.583	140.5432
955.757	70.96171
955.93	62.52924
956.104	102.58669
956.278	75.17808
956.451	108.91229
956.625	45.6654
956.798	83.6111
956.972	96.26129
957.145	146.86997
957.319	37.23403
957.492	41.44967
957.665	176.39736
957.839	153.19692
958.012	89.9361
958.185	35.12624
958.359	106.80373
958.532	87.82774
958.705	-0.70246
958.879	106.80373
959.052	70.96171
959.225	125.7815
959.398	119.45538
959.572	70.96171
959.745	41.44967
959.918	108.91229
960.091	94.15287
960.264	117.34672
960.438	85.71941
960.611	142.6521
960.784	51.98916
960.957	127.89025
961.13	64.63732
961.303	60.42118
961.476	113.12946
961.649	58.31314
961.822	43.55752
961.995	28.80304
962.168	138.43433
962.341	45.6654
962.514	58.31314
962.686	-0.70246
962.859	64.63732
963.032	60.42118
963.205	75.17808
963.378	58.31314
963.551	75.17808
963.723	35.12624
963.896	83.6111
964.069	75.17808
964.242	58.31314
964.414	113.12946
964.587	20.37242
964.76	100.4782
964.932	100.4782
965.105	54.09713
965.278	96.26129
965.45	51.98916
965.623	87.82774
965.795	77.2863
965.968	113.12946
966.14	35.12624
966.313	68.85356
966.485	87.82774
966.658	132.10782
966.83	43.55752
967.003	9.83468
967.175	66.74543
967.348	83.6111
967.52	66.74543
967.692	28.80304
967.865	75.17808
968.037	18.26482
968.209	111.02086
968.382	96.26129
968.554	89.9361
968.726	18.26482
968.898	66.74543
969.071	-13.34623
969.243	56.20513
969.415	102.58669
969.587	77.2863
969.759	100.4782
969.932	62.52924
970.104	-9.13173
970.276	92.04447
970.448	18.26482
970.62	79.39455
970.792	60.42118
970.964	16.15725
971.136	127.89025
971.308	9.83468
971.48	58.31314
971.652	119.45538
971.824	108.91229
971.996	-34.41722
972.168	49.88122
972.339	83.6111
972.511	14.04971
972.683	83.6111
972.855	-13.34623
973.027	51.98916
973.199	89.9361
973.37	43.55752
973.542	39.34183
973.714	35.12624
973.886	24.58768
974.057	100.4782
974.229	92.04447
974.401	125.7815
974.572	115.23808
974.744	54.09713
974.915	129.99903
975.087	123.67278
975.259	62.52924
975.43	9.83468
975.602	26.69535
975.773	117.34672
975.945	-0.70246
976.116	64.63732
976.288	30.91075
976.459	70.96171
976.63	115.23808
976.802	75.17808
976.973	77.2863
977.145	-23.88203
977.316	94.15287
977.487	108.91229
977.659	77.2863
977.83	58.31314
978.001	115.23808
978.172	96.26129
978.344	-0.70246
978.515	35.12624
978.686	30.91075
978.857	20.37242
979.028	75.17808
979.2	157.41499
979.371	81.50281
979.542	68.85356
979.713	75.17808
979.884	56.20513
980.055	24.58768
980.226	85.71941
980.397	7.72721
980.568	117.34672
980.739	108.91229
980.91	96.26129
981.081	-2.80981
981.252	117.34672
981.423	77.2863
981.594	100.4782
981.765	35.12624
981.936	60.42118
982.106	94.15287
982.277	77.2863
982.448	60.42118
982.619	70.96171
982.79	75.17808
982.96	92.04447
983.131	22.48004
983.302	14.04971
983.472	30.91075
983.643	37.23403
983.814	62.52924
983.984	7.72721
984.155	35.12624
984.326	41.44967
984.496	-11.23899
984.667	7.72721
984.837	41.44967
985.008	60.42118
985.178	100.4782
985.349	134.21663
985.519	83.6111
985.69	56.20513
985.86	104.6952
986.031	11.94218
986.201	20.37242
986.371	62.52924
986.542	18.26482
986.712	70.96171
986.882	102.58669
987.053	7.72721
987.223	98.36974
987.393	79.39455
987.563	28.80304
987.734	83.6111
987.904	41.44967
988.074	81.50281
988.244	102.58669
988.414	60.42118
988.585	24.58768
988.755	83.6111
988.925	51.98916
989.095	37.23403
989.265	92.04447
989.435	79.39455
989.605	11.94218
989.775	75.17808
989.945	94.15287
990.115	1.40492
990.285	119.45538
990.455	24.58768
990.625	102.58669
990.795	9.83468
990.965	62.52924
991.134	117.34672
991.304	9.83468
991.474	70.96171
991.644	58.31314
991.814	33.01848
991.984	142.6521
992.153	94.15287
992.323	92.04447
992.493	39.34183
992.662	-2.80981
992.832	-19.66778
993.002	92.04447
993.171	119.45538
993.341	26.69535
993.511	70.96171
993.68	75.17808
993.85	54.09713
994.019	100.4782
994.189	51.98916
994.358	70.96171
994.528	37.23403
994.697	58.31314
994.867	43.55752
995.036	45.6654
995.206	60.42118
995.375	68.85356
995.544	9.83468
995.714	35.12624
995.883	54.09713
996.052	26.69535
996.222	96.26129
996.391	24.58768
996.56	98.36974
996.73	37.23403
996.899	49.88122
997.068	43.55752
997.237	85.71941
997.406	18.26482
997.576	56.20513
997.745	45.6654
997.914	18.26482
998.083	100.4782
998.252	41.44967
998.421	45.6654
998.59	30.91075
998.759	16.15725
998.928	26.69535
999.097	45.6654
999.266	60.42118
999.435	18.26482
999.604	43.55752
999.773	58.31314
999.942	9.83468
1000.111	-17.56062
1000.28	-13.34623
1000.448	70.96171
1000.617	58.31314
1000.786	47.77329
1000.955	79.39455
1001.124	62.52924
1001.292	37.23403
1001.461	24.58768
1001.63	75.17808
1001.798	-9.13173
1001.967	-11.23899
1002.136	51.98916
1002.304	102.58669
1002.473	41.44967
1002.642	-84.97739
1002.81	33.01848
1002.979	11.94218
1003.147	-9.13173
1003.316	81.50281
1003.484	75.17808
1003.653	11.94218
1003.821	-9.13173
1003.99	113.12946
1004.158	16.15725
1004.327	24.58768
1004.495	16.15725
1004.663	49.88122
1004.832	41.44967
1005	3.51233
1005.168	24.58768
1005.337	-15.45344
1005.505	3.51233
1005.673	70.96171
1005.842	64.63732
1006.01	18.26482
1006.178	58.31314
1006.346	33.01848
1006.514	33.01848
1006.683	-42.84492
1006.851	83.6111
1007.019	-13.34623
1007.187	20.37242
1007.355	-4.91714
1007.523	43.55752
1007.691	117.34672
1007.859	-7.02445
1008.027	3.51233
1008.195	70.96171
1008.363	-17.56062
1008.531	-7.02445
1008.699	41.44967
1008.867	20.37242
1009.035	45.6654
1009.203	96.26129
1009.37	20.37242
1009.538	54.09713
1009.706	58.31314
1009.874	66.74543
1010.042	30.91075
1010.209	83.6111
1010.377	58.31314
1010.545	7.72721
1010.713	-49.16544
1010.88	111.02086
1011.048	58.31314
1011.216	60.42118
1011.383	24.58768
1011.551	18.26482
1011.718	62.52924
1011.886	-7.02445
1012.054	20.37242
1012.221	3.51233
1012.389	66.74543
1012.556	49.88122
1012.724	66.74543
1012.891	-42.84492
1013.058	20.37242
1013.226	26.69535
1013.393	68.85356
1013.561	100.4782
1013.728	18.26482
1013.895	104.6952
1014.063	16.15725
1014.23	18.26482
1014.397	28.80304
1014.565	45.6654
1014.732	35.12624
1014.899	66.74543
1015.066	58.31314
1015.233	33.01848
1015.401	41.44967
1015.568	49.88122
1015.735	9.83468
1015.902	-7.02445
1016.069	41.44967
1016.236	70.96171
1016.403	22.48004
1016.57	49.88122
1016.737	-7.02445
1016.904	58.31314
1017.071	-4.91714
1017.238	24.58768
1017.405	49.88122
1017.572	-4.91714
1017.739	11.94218
1017.906	83.6111
1018.073	20.37242
1018.24	-0.70246
1018.407	-0.70246
1018.573	18.26482
1018.74	24.58768
1018.907	35.12624
1019.074	77.2863
1019.241	39.34183
1019.407	104.6952
1019.574	81.50281
1019.741	58.31314
1019.907	-23.88203
1020.074	-32.31023
1020.241	35.12624
1020.407	33.01848
1020.574	56.20513
1020.74	-15.45344
1020.907	-15.45344
1021.073	127.89025
1021.24	7.72721
1021.406	33.01848
1021.573	113.12946
1021.739	11.94218
1021.906	33.01848
1022.072	-38.63112
1022.239	66.74543
1022.405	108.91229
1022.571	41.44967
1022.738	45.6654
1022.904	58.31314
1023.07	108.91229
1023.237	-30.20322
1023.403	33.01848
1023.569	7.72721
1023.735	-34.41722
1023.902	70.96171
1024.068	9.83468
1024.234	77.2863
1024.4	-13.34623
1024.566	45.6654
1024.732	16.15725
1024.898	-0.70246
1025.065	11.94218
1025.231	7.72721
1025.397	96.26129
1025.563	66.74543
1025.729	62.52924
1025.895	102.58669
1026.061	3.51233
1026.227	83.6111
1026.392	49.88122
1026.558	41.44967
1026.724	43.55752
1026.89	28.80304
1027.056	49.88122
1027.222	11.94218
1027.388	49.88122
1027.553	51.98916
1027.719	115.23808
1027.885	24.58768
1028.051	-7.02445
1028.216	16.15725
1028.382	11.94218
1028.548	20.37242
1028.713	49.88122
1028.879	54.09713
1029.045	94.15287
1029.21	66.74543
1029.376	58.31314
1029.541	62.52924
1029.707	-9.13173
1029.873	49.88122
1030.038	-21.77492
1030.204	39.34183
1030.369	16.15725
1030.534	37.23403
1030.7	70.96171
1030.865	41.44967
1031.031	-19.66778
1031.196	43.55752
1031.361	37.23403
1031.527	47.77329
1031.692	24.58768
1031.857	30.91075
1032.023	41.44967
1032.188	20.37242
1032.353	-34.41722
1032.518	33.01848
1032.684	37.23403
1032.849	-2.80981
1033.014	83.6111
1033.179	-30.20322
1033.344	83.6111
1033.509	28.80304
1033.674	-4.91714
1033.839	-36.52418
1034.004	-23.88203
1034.17	-40.73804
1034.335	68.85356
1034.5	11.94218
1034.664	94.15287
1034.829	-13.34623
1034.994	18.26482
1035.159	62.52924
1035.324	33.01848
1035.489	11.94218
1035.654	58.31314
1035.819	-17.56062
1035.984	28.80304
1036.148	58.31314
1036.313	-51.27223
1036.478	28.80304
1036.643	18.26482
1036.807	41.44967
1036.972	37.23403
1037.137	117.34672
1037.301	41.44967
1037.466	92.04447
1037.631	119.45538
1037.795	60.42118
1037.96	58.31314
1038.124	60.42118
1038.289	66.74543
1038.454	24.58768
1038.618	24.58768
1038.783	37.23403
1038.947	-7.02445
1039.111	16.15725
1039.276	43.55752
1039.44	22.48004
1039.605	87.82774
1039.769	-17.56062
1039.933	9.83468
1040.098	54.09713
1040.262	-4.91714
1040.426	87.82774
1040.591	58.31314
1040.755	-13.34623
1040.919	16.15725
1041.083	-0.70246
1041.248	49.88122
1041.412	41.44967
1041.576	-9.13173
1041.74	68.85356
1041.904	24.58768
1042.068	16.15725
1042.232	-17.56062
1042.397	16.15725
1042.561	1.40492
1042.725	18.26482
1042.889	22.48004
1043.053	49.88122
1043.217	70.96171
1043.381	-15.45344
1043.544	43.55752
1043.708	41.44967
1043.872	-9.13173
1044.036	35.12624
1044.2	60.42118
1044.364	70.96171
1044.528	51.98916
1044.691	54.09713
1044.855	-49.16544
1045.019	-0.70246
1045.183	58.31314
1045.346	58.31314
1045.51	58.31314
1045.674	-7.02445
1045.837	43.55752
1046.001	18.26482
1046.165	43.55752
1046.328	-0.70246
1046.492	11.94218
1046.655	5.61975
1046.819	33.01848
1046.983	83.6111
1047.146	102.58669
1047.31	66.74543
1047.473	28.80304
1047.636	39.34183
1047.8	73.06989
1047.963	-7.02445
1048.127	85.71941
1048.29	7.72721
