Data from mixed_try1_USB4F045381__24__00046.txt Node

Date: Thu Apr 03 19:34:29 EDT 2025
User: mmckonesweet
Spectrometer: USB4F04538
Trigger mode: 4
Integration Time (sec): 2.700000E-3
Scans to average: 1
Electric dark correction enabled: true
Nonlinearity correction enabled: true
Boxcar width: 0
XAxis mode: Wavelengths
Number of Pixels in Spectrum: 3648
>>>>>Begin Spectral Data<<<<<
345.52	25.29023
345.736	25.29023
345.952	25.29023
346.168	-46.35635
346.384	31.61332
346.6	16.85977
346.816	12.64469
347.032	-8.42931
347.248	14.75222
347.464	-6.32202
347.68	-2.10736
347.896	-65.31684
348.112	37.93663
348.328	-54.78349
348.544	101.18103
348.76	-54.78349
348.975	8.4297
349.191	-16.85823
349.407	-14.75104
349.623	-14.75104
349.839	-33.71489
350.055	25.29023
350.27	-31.6079
350.486	-27.39383
350.702	-10.53658
350.918	-4.2147
351.133	59.01582
351.349	-42.14263
351.565	14.75222
351.781	-44.2495
351.996	-4.2147
352.212	-27.39383
352.428	-33.71489
352.644	-21.07254
352.859	27.39791
353.075	-29.50088
353.291	25.29023
353.506	54.79979
353.722	2.10739
353.938	4.2148
354.153	12.64469
354.369	-54.78349
354.584	-6.32202
354.8	25.29023
355.016	12.64469
355.231	-6.32202
355.447	-8.42931
355.662	-16.85823
355.878	16.85977
356.093	2.10739
356.309	33.72107
356.524	52.69182
356.74	35.82884
356.955	42.15228
357.171	18.96735
357.386	25.29023
357.602	21.07496
357.817	25.29023
358.033	31.61332
358.248	40.04444
358.464	12.64469
358.679	25.29023
358.895	-29.50088
359.11	14.75222
359.325	18.96735
359.541	4.2148
359.756	31.61332
359.972	23.18258
360.187	-42.14263
360.402	42.15228
360.618	46.36803
360.833	21.07496
361.048	-16.85823
361.264	-16.85823
361.479	4.2148
361.694	-14.75104
361.909	35.82884
362.125	29.5056
362.34	4.2148
362.555	0
362.77	4.2148
362.986	-16.85823
363.201	56.90779
363.416	-82.16888
363.631	25.29023
363.847	75.88082
364.062	-25.28676
364.277	-25.28676
364.492	101.18103
364.707	-33.71489
364.922	54.79979
365.138	18.96735
365.353	35.82884
365.568	2.10739
365.783	18.96735
365.998	-18.9654
366.213	8.4297
366.428	31.61332
366.643	-6.32202
366.858	16.85977
367.073	-4.2147
367.288	-25.28676
367.503	16.85977
367.718	27.39791
367.933	18.96735
368.148	-37.92881
368.363	-21.07254
368.578	37.93663
368.793	50.58386
369.008	-10.53658
369.223	2.10739
369.438	10.53718
369.653	113.83233
369.868	-56.89021
370.083	-37.92881
370.298	-8.42931
370.513	27.39791
370.728	33.72107
370.943	-44.2495
371.157	40.04444
371.372	4.2148
371.587	50.58386
371.802	-48.46317
372.017	33.72107
372.232	-8.42931
372.446	-6.32202
372.661	33.72107
372.876	50.58386
373.091	-37.92881
373.306	-31.6079
373.52	8.4297
373.735	-88.48797
373.95	59.01582
374.165	12.64469
374.379	-16.85823
374.594	21.07496
374.809	16.85977
375.023	21.07496
375.238	-21.07254
375.453	-37.92881
375.667	118.04961
375.882	4.2148
376.097	40.04444
376.311	92.74727
376.526	16.85977
376.741	21.07496
376.955	37.93663
377.17	67.44814
377.384	29.5056
377.599	4.2148
377.813	-25.28676
378.028	12.64469
378.242	4.2148
378.457	61.12386
378.672	-23.17966
378.886	48.47593
379.101	-16.85823
379.315	35.82884
379.53	-4.2147
379.744	-16.85823
379.958	33.72107
380.173	35.82884
380.387	67.44814
380.602	21.07496
380.816	33.72107
381.031	27.39791
381.245	33.72107
381.459	67.44814
381.674	4.2148
381.888	16.85977
382.103	44.26014
382.317	-8.42931
382.531	50.58386
382.746	-42.14263
382.96	-6.32202
383.174	37.93663
383.388	25.29023
383.603	-4.2147
383.817	18.96735
384.031	42.15228
384.246	52.69182
384.46	-35.82187
384.674	10.53718
384.888	59.01582
385.103	18.96735
385.317	59.01582
385.531	-25.28676
385.745	-6.32202
385.959	-18.9654
386.174	-14.75104
386.388	37.93663
386.602	-35.82187
386.816	52.69182
387.03	10.53718
387.244	16.85977
387.458	4.2148
387.672	61.12386
387.887	29.5056
388.101	82.20557
388.315	-23.17966
388.529	96.96411
388.743	-27.39383
388.957	-44.2495
389.171	-16.85823
389.385	-16.85823
389.599	69.55627
389.813	21.07496
390.027	71.66443
390.241	33.72107
390.455	61.12386
390.669	-8.42931
390.883	-8.42931
391.097	-21.07254
391.311	-29.50088
391.525	37.93663
391.738	59.01582
391.952	4.2148
392.166	8.4297
392.38	-4.2147
392.594	42.15228
392.808	18.96735
393.022	4.2148
393.236	25.29023
393.449	33.72107
393.663	35.82884
393.877	0
394.091	-67.42343
394.305	37.93663
394.518	27.39791
394.732	52.69182
394.946	109.61514
395.16	33.72107
395.373	46.36803
395.587	29.5056
395.801	99.07256
396.015	-67.42343
396.228	-46.35635
396.442	16.85977
396.656	-16.85823
396.869	90.63889
397.083	-10.53658
397.297	80.0973
397.51	61.12386
397.724	14.75222
397.938	44.26014
398.151	0
398.365	-25.28676
398.578	33.72107
398.792	8.4297
399.005	77.98905
399.219	101.18103
399.433	50.58386
399.646	-25.28676
399.86	44.26014
400.073	-25.28676
400.287	0
400.5	18.96735
400.714	-14.75104
400.927	-2.10736
401.141	-42.14263
401.354	69.55627
401.567	8.4297
401.781	77.98905
401.994	-4.2147
402.208	35.82884
402.421	-16.85823
402.635	107.50658
402.848	-25.28676
403.061	71.66443
403.275	12.64469
403.488	27.39791
403.701	61.12386
403.915	-33.71489
404.128	-4.2147
404.341	18.96735
404.555	37.93663
404.768	18.96735
404.981	-12.64382
405.195	2.10739
405.408	12.64469
405.621	-12.64382
405.834	-33.71489
406.048	-58.9969
406.261	54.79979
406.474	54.79979
406.687	50.58386
406.9	21.07496
407.114	-23.17966
407.327	0
407.54	-4.2147
407.753	27.39791
407.966	-73.74306
408.179	21.07496
408.392	-23.17966
408.605	2.10739
408.819	46.36803
409.032	0
409.245	25.29023
409.458	27.39791
409.671	75.88082
409.884	18.96735
410.097	54.79979
410.31	73.77262
410.523	-12.64382
410.736	18.96735
410.949	12.64469
411.162	12.64469
411.375	25.29023
411.588	-25.28676
411.801	69.55627
412.014	50.58386
412.227	33.72107
412.44	54.79979
412.653	42.15228
412.865	8.4297
413.078	-10.53658
413.291	92.74727
413.504	18.96735
413.717	105.39804
413.93	-65.31684
414.143	-52.67674
414.356	27.39791
414.568	67.44814
414.781	84.31387
414.994	52.69182
415.207	-14.75104
415.42	-4.2147
415.632	18.96735
415.845	-12.64382
416.058	12.64469
416.271	18.96735
416.483	27.39791
416.696	8.4297
416.909	-6.32202
417.121	-10.53658
417.334	-33.71489
417.547	21.07496
417.759	16.85977
417.972	42.15228
418.185	50.58386
418.397	80.0973
418.61	12.64469
418.823	84.31387
419.035	67.44814
419.248	40.04444
419.46	75.88082
419.673	25.29023
419.885	33.72107
420.098	37.93663
420.311	-56.89021
420.523	29.5056
420.736	54.79979
420.948	-23.17966
421.161	50.58386
421.373	21.07496
421.586	63.23193
421.798	42.15228
422.01	80.0973
422.223	46.36803
422.435	-31.6079
422.648	6.32224
422.86	61.12386
423.073	16.85977
423.285	-8.42931
423.497	61.12386
423.71	37.93663
423.922	101.18103
424.134	52.69182
424.347	52.69182
424.559	-25.28676
424.771	37.93663
424.984	8.4297
425.196	59.01582
425.408	-16.85823
425.621	25.29023
425.833	2.10739
426.045	-48.46317
426.257	63.23193
426.47	65.34002
426.682	-14.75104
426.894	-10.53658
427.106	-16.85823
427.318	-12.64382
427.531	4.2148
427.743	77.98905
427.955	8.4297
428.167	27.39791
428.379	44.26014
428.591	86.42218
428.804	-16.85823
429.016	-56.89021
429.228	-73.74306
429.44	-12.64382
429.652	37.93663
429.864	-12.64382
430.076	52.69182
430.288	42.15228
430.5	14.75222
430.712	0
430.924	54.79979
431.136	35.82884
431.348	-18.9654
431.56	8.4297
431.772	42.15228
431.984	27.39791
432.196	50.58386
432.408	8.4297
432.62	40.04444
432.832	54.79979
433.044	46.36803
433.256	35.82884
433.468	69.55627
433.679	67.44814
433.891	10.53718
434.103	4.2148
434.315	2.10739
434.527	-6.32202
434.739	-21.07254
434.95	18.96735
435.162	29.5056
435.374	40.04444
435.586	59.01582
435.798	44.26014
436.009	54.79979
436.221	40.04444
436.433	61.12386
436.645	23.18258
436.856	16.85977
437.068	44.26014
437.28	109.61514
437.491	-8.42931
437.703	99.07256
437.915	115.94096
438.126	67.44814
438.338	61.12386
438.55	37.93663
438.761	21.07496
438.973	46.36803
439.184	-23.17966
439.396	-16.85823
439.608	56.90779
439.819	-23.17966
440.031	0
440.242	42.15228
440.454	67.44814
440.665	50.58386
440.877	8.4297
441.088	50.58386
441.3	52.69182
441.511	103.28953
441.723	46.36803
441.934	-29.50088
442.146	48.47593
442.357	21.07496
442.569	-8.42931
442.78	67.44814
442.991	139.13728
443.203	37.93663
443.414	120.15828
443.626	42.15228
443.837	61.12386
444.048	46.36803
444.26	92.74727
444.471	54.79979
444.682	67.44814
444.894	8.4297
445.105	-4.2147
445.316	44.26014
445.528	90.63889
445.739	67.44814
445.95	46.36803
446.161	50.58386
446.373	31.61332
446.584	8.4297
446.795	-4.2147
447.006	73.77262
447.217	12.64469
447.429	27.39791
447.64	-31.6079
447.851	67.44814
448.062	86.42218
448.273	46.36803
448.484	21.07496
448.695	130.70195
448.907	0
449.118	75.88082
449.329	118.04961
449.54	35.82884
449.751	80.0973
449.962	21.07496
450.173	75.88082
450.384	25.29023
450.595	59.01582
450.806	-12.64382
451.017	6.32224
451.228	92.74727
451.439	52.69182
451.65	8.4297
451.861	25.29023
452.072	84.31387
452.283	52.69182
452.494	54.79979
452.705	69.55627
452.915	67.44814
453.126	96.96411
453.337	42.15228
453.548	54.79979
453.759	21.07496
453.97	63.23193
454.181	8.4297
454.391	75.88082
454.602	37.93663
454.813	120.15828
455.024	33.72107
455.235	120.15828
455.445	59.01582
455.656	143.35507
455.867	92.74727
456.078	42.15228
456.288	27.39791
456.499	37.93663
456.71	35.82884
456.921	94.85568
457.131	113.83233
457.342	-16.85823
457.553	46.36803
457.763	101.18103
457.974	132.81075
458.184	73.77262
458.395	61.12386
458.606	59.01582
458.816	101.18103
459.027	86.42218
459.237	75.88082
459.448	21.07496
459.659	25.29023
459.869	31.61332
460.08	84.31387
460.29	118.04961
460.501	69.55627
460.711	69.55627
460.922	54.79979
461.132	147.57295
461.343	75.88082
461.553	122.26697
461.764	118.04961
461.974	118.04961
462.184	25.29023
462.395	84.31387
462.605	177.10045
462.816	118.04961
463.026	113.83233
463.236	111.72373
463.447	128.59318
463.657	101.18103
463.867	151.79091
464.078	111.72373
464.288	94.85568
464.498	132.81075
464.709	174.9912
464.919	109.61514
465.129	84.31387
465.339	143.35507
465.55	113.83233
465.76	145.464
465.97	122.26697
466.18	75.88082
466.391	145.464
466.601	128.59318
466.811	210.85109
467.021	120.15828
467.231	177.10045
467.441	139.13728
467.651	196.08454
467.862	263.59661
468.072	193.97512
468.282	185.53762
468.492	134.91958
468.702	164.4453
468.912	204.52245
469.122	156.00896
469.332	179.20971
469.542	177.10045
469.752	143.35507
469.962	280.47771
470.172	208.74152
470.382	219.28955
470.592	238.27725
470.802	227.72833
471.012	223.5089
471.222	259.37653
471.432	305.80158
471.642	272.03701
471.852	227.72833
472.062	242.49695
472.272	236.16742
472.482	278.36751
472.691	269.92688
472.901	278.36751
473.111	341.68151
473.321	337.46008
473.531	375.45547
473.741	320.57505
473.95	402.9
474.16	390.23295
474.37	286.80843
474.58	438.79314
474.79	466.24391
474.999	388.12183
475.209	476.80258
475.419	381.78858
475.628	472.57906
475.838	438.79314
476.048	491.58535
476.258	578.18424
476.467	561.28507
476.677	641.5635
476.886	666.91831
477.096	658.46652
477.306	609.87244
477.515	580.2967
477.725	618.32312
477.935	671.14428
478.144	717.63293
478.354	654.24069
478.563	831.76294
478.773	787.37564
478.982	814.85301
479.192	768.3538
479.401	878.26818
479.611	865.58452
479.82	931.11986
480.03	823.3079
480.239	939.57658
480.449	1038.95115
480.658	1007.23431
480.868	1121.42075
481.077	1176.40445
481.287	1053.75279
481.496	1115.07666
481.705	1157.37131
481.915	1186.97855
482.124	1159.48609
482.333	1313.87371
482.543	1210.24188
482.752	1263.11449
482.961	1337.13873
483.171	1461.92607
483.38	1379.43922
483.589	1438.6605
483.799	1390.01441
484.008	1561.33292
484.217	1483.07658
484.426	1554.98786
484.636	1495.76687
484.845	1605.74791
485.054	1605.74791
485.263	1857.40976
485.472	1715.72371
485.682	1741.10161
485.891	1808.77338
486.1	1901.81463
486.309	1749.5608
486.518	1918.73016
486.727	1876.4407
486.936	2024.44362
487.146	1952.56012
487.355	1994.84542
487.564	1912.38688
487.773	2202.003
487.982	1977.9316
488.191	2206.22992
488.4	2299.21318
488.609	2275.96902
488.818	2083.63599
489.027	2284.42157
489.236	2337.2466
489.445	2556.92942
489.654	2470.33776
489.863	2537.92315
490.072	2436.54079
490.281	2552.70589
490.49	2654.05742
490.698	2594.93909
490.907	2616.05389
491.116	2797.58871
491.325	2645.61254
491.534	2814.47067
491.743	2647.72378
491.952	2831.35175
492.16	2886.20905
492.369	2930.50979
492.578	2979.02222
492.787	2976.91314
492.996	2934.72857
493.204	3227.7833
493.413	3128.72705
493.622	3215.13984
493.831	2928.40038
494.039	3324.69636
494.248	3282.56466
494.457	3453.15509
494.665	3377.35129
494.874	3478.41788
495.083	3318.37705
495.291	3451.04974
495.5	3404.72753
495.709	3608.90036
495.917	3448.94437
496.126	3821.30506
496.335	3446.83899
496.543	3724.59068
496.752	3501.57314
496.96	3810.79464
497.169	3619.42003
497.377	4123.78916
497.586	3653.07982
497.794	3995.70516
498.003	3884.35721
498.211	4018.80795
498.42	4004.10647
498.628	3928.483
498.837	3943.18963
499.045	4224.5219
499.254	4104.89638
499.462	4220.32567
499.671	4308.42845
499.879	4232.91409
500.087	4148.97689
500.296	4287.45502
500.504	4373.43235
500.713	4455.18177
500.921	4362.94925
501.129	4379.72194
501.338	4337.78762
501.546	4664.64235
501.754	4453.08604
501.962	4599.73336
502.171	4547.37178
502.379	4631.14362
502.587	4490.8057
502.795	4564.129
503.004	4585.07352
503.212	4790.21121
503.42	4633.23746
503.628	4871.78717
503.837	4804.8556
504.045	4892.69849
504.253	4898.97144
504.461	4903.15329
504.669	4716.97259
504.877	5020.20783
505.085	5030.65561
505.294	5024.38701
505.502	4878.06081
505.71	5020.20783
505.918	4999.31053
506.126	5297.92126
506.334	5164.3361
506.542	5181.03947
506.75	4993.04089
506.958	5358.4205
507.166	5041.10282
507.374	5291.6616
507.582	5291.6616
507.79	5543.96729
507.998	5618.96696
508.206	5412.64444
508.414	5393.87641
508.622	5518.96062
508.83	5460.59852
509.037	5691.854
509.245	5366.76368
509.453	5633.54668
509.661	5662.70265
509.869	5783.44241
510.077	5531.46438
510.285	6051.69969
510.492	5735.57235
510.7	5625.21555
510.908	5641.87743
511.116	5802.17077
511.324	5629.38116
511.531	5943.61218
511.739	5783.44241
511.947	5995.58528
512.155	5548.13474
512.362	6068.32289
512.57	5708.50983
512.778	5976.87667
512.985	5958.16614
513.193	6097.40986
513.401	5939.4537
513.608	6230.3202
513.816	6068.32289
514.024	6165.95376
514.231	6057.93357
514.439	6153.49314
514.646	6195.02527
514.854	6390.10079
515.061	6105.71957
515.269	6257.30588
515.477	6284.28759
515.684	6323.71529
515.892	6394.24909
516.099	6296.73936
516.307	6512.43653
516.514	6674.04475
516.722	6215.78782
516.929	6551.81558
517.136	6437.80062
517.344	6721.6717
517.551	6526.94557
517.759	6854.13516
517.966	6470.97585
518.173	6678.18671
518.381	6667.83164
518.588	6765.14659
518.796	6787.91512
519.003	6976.1674
519.21	6887.23644
519.418	7079.52309
519.625	6881.03039
519.832	7155.97028
520.039	6994.77557
520.247	7151.83878
520.454	6845.85893
520.661	7325.2856
520.868	7036.12054
521.076	7110.51888
521.283	7209.67171
521.49	7238.58166
521.697	7139.44374
521.904	7139.44374
522.112	7145.64136
522.319	7477.95586
522.526	7292.2601
522.733	7638.75061
522.94	7354.17831
523.147	7603.71669
523.354	7418.13981
523.561	7634.62929
523.768	7407.82485
523.975	7574.8606
524.183	7343.85998
524.39	7964.06953
524.597	7766.46956
524.804	7951.72511
525.011	7733.51758
525.218	7624.32562
525.425	7875.58479
525.632	7640.81124
525.838	7739.69649
526.045	7935.26472
526.252	7904.39796
526.459	8128.59197
526.666	8194.36489
526.873	8099.80988
527.08	8044.29041
527.287	8272.44383
527.494	7848.82608
527.701	8112.14555
527.907	8025.78065
528.114	8134.75905
528.321	8391.56234
528.528	8243.68123
528.735	8182.03403
528.941	8424.41114
529.148	8077.19262
529.355	8469.57019
529.562	8194.36489
529.768	8412.09342
529.975	8223.13414
530.182	8576.27312
530.388	8397.72187
530.595	8559.86061
530.802	8145.03712
531.008	8639.86023
531.215	8736.23243
531.422	8590.63307
531.628	8641.91113
531.835	8678.82412
532.042	8725.982
532.248	8920.66241
532.455	9043.53541
532.661	9158.16027
532.868	8910.42012
533.074	9037.39326
533.281	9160.20665
533.487	9051.72469
533.694	8701.37911
533.9	9084.47907
534.107	9125.41582
534.313	9244.09374
534.52	9033.2984
534.726	9434.27024
534.933	9201.13074
535.139	9395.42853
535.345	9192.94646
535.552	9360.67043
535.758	9235.91088
535.965	9428.13773
536.171	9221.59024
536.377	9487.41258
536.584	9334.08751
536.79	9466.97451
536.996	9407.69497
537.203	9640.64749
537.409	9405.6506
537.615	9595.70777
537.821	9438.3585
538.028	9808.08439
538.234	9626.34931
538.44	9673.3262
538.646	9305.45662
538.853	9765.21396
539.059	9661.07215
539.265	9897.88678
539.471	9877.47966
539.677	9959.09931
539.883	9971.34025
540.09	10065.17021
540.296	10003.9802
540.502	10203.82067
540.708	9808.08439
540.914	10142.65929
541.12	10103.91729
541.326	10342.40773
541.532	10297.57755
541.738	10556.28281
541.944	10038.65612
542.15	10269.04588
542.356	10183.43492
542.562	10637.7222
542.768	10336.29491
542.974	10432.04892
543.18	10375.00747
543.386	10798.50764
543.592	10786.29871
543.798	10631.61494
544.004	10525.73788
544.21	10875.82112
544.415	10566.46383
544.621	10987.69287
544.827	10599.04097
545.033	10784.26384
545.239	10770.01947
545.445	11005.99592
545.651	10684.54092
545.856	10963.2874
546.062	10961.25354
546.268	11060.89968
546.474	10694.71805
546.679	10759.84456
546.885	10957.18578
547.091	11103.59711
547.297	10637.7222
547.502	10879.88979
547.708	10810.71615
547.914	11148.32265
548.119	11046.66614
548.325	11333.2699
548.531	10997.86134
548.736	11178.81439
548.942	10826.99351
549.147	11052.7663
549.353	11123.92755
549.559	11335.30182
549.764	11152.38836
549.97	10999.895
550.175	11442.97922
550.381	11834.86475
550.586	11345.46125
550.792	11587.18385
550.997	11371.87461
551.203	11719.16134
551.408	11702.92
551.614	11895.75018
551.819	11741.49226
552.025	11875.45587
552.23	11816.59765
552.435	11991.12246
552.641	12074.30515
552.846	12027.64332
553.052	11694.79912
553.257	11899.80894
553.462	11962.71557
553.668	11771.94182
553.873	11747.58233
554.078	12159.50325
554.283	12165.58832
554.489	12315.66591
554.694	12171.67332
554.899	12039.81637
555.105	12127.04841
555.31	12565.0357
555.515	12125.01992
555.72	12173.70164
555.925	12212.23831
556.131	12388.66264
556.336	11956.62817
556.541	12581.25147
556.746	12467.73253
556.951	12333.91593
557.156	12368.38667
557.361	12552.8736
557.567	12479.89624
557.772	12710.96361
557.977	12635.97679
558.182	12725.1494
558.387	12806.20564
558.592	12767.70506
558.797	12860.91355
559.002	12952.08468
559.207	12751.49368
559.412	12789.99512
559.617	12917.64351
559.822	12992.60179
560.027	12844.70422
560.232	12927.77342
560.437	12804.17935
560.642	12765.67866
560.847	12498.14136
561.051	13004.75653
561.256	12629.89642
561.461	13176.92982
561.666	12854.83509
561.871	12958.16237
562.076	13347.04525
562.281	13166.80293
562.485	12836.59942
562.69	13018.93683
562.895	13116.1667
563.1	13387.54455
563.305	13069.57878
563.509	13162.75214
563.714	13081.7324
563.919	13128.31966
564.123	13170.8537
564.328	13409.81847
564.533	13290.34348
564.737	13122.24321
564.942	13221.48684
565.147	13440.19125
565.351	13338.9452
565.556	13290.34348
565.761	13371.34502
565.965	13606.21422
566.17	13193.13263
566.374	13446.2657
566.579	13721.60667
566.784	13687.19249
566.988	13383.49469
567.193	13741.84989
567.397	13385.51962
567.602	13642.6551
567.806	13598.11609
568.011	13745.89849
568.215	13859.25458
568.42	13818.77132
568.624	13855.2063
568.828	13841.03725
569.033	13693.26565
569.237	14284.26853
569.442	13907.83302
569.646	13677.07049
569.85	13895.68856
570.055	14217.487
570.259	14314.6231
570.463	14417.82582
570.668	13922.00144
570.872	14011.05715
571.076	14108.20347
571.281	14276.1739
571.485	13992.84161
571.689	14255.93722
571.893	14174.98857
572.098	14342.95369
572.302	14375.33109
572.506	14417.82582
572.71	14302.48132
572.914	14482.57842
573.119	14496.74286
573.323	14589.82188
573.527	14322.71759
573.731	14531.14194
573.935	14464.3669
574.139	14719.31921
574.343	14136.53682
574.547	14630.29025
574.751	14690.99201
574.955	14525.07154
575.159	14715.27247
575.364	14949.97814
575.568	14547.32961
575.772	14711.22574
575.976	14723.36593
576.18	14891.30249
576.383	14591.84531
576.587	14820.48644
576.791	14767.87972
576.995	14648.50087
577.199	14893.32579
577.403	14701.10889
577.607	14913.55882
577.811	15293.93505
578.015	15067.32852
578.219	15026.86298
578.422	15215.02734
578.626	15259.53935
578.83	15146.23613
579.034	15002.58361
579.238	15182.655
579.442	15160.39903
579.645	14879.16264
579.849	15378.91298
580.053	14968.18775
580.257	15198.84117
580.46	15208.95753
580.664	15283.81866
580.868	15413.309
581.071	15453.77506
581.275	15405.21581
581.479	15111.84053
581.682	15255.4928
581.886	15168.49211
582.09	15235.26006
582.293	15480.07812
582.497	15597.43148
582.7	15759.30255
582.904	15631.82861
583.107	15494.24134
583.311	15275.72555
583.515	15698.60021
583.718	15621.71178
583.922	15884.75708
584.125	15830.12312
584.329	15777.51342
584.532	15737.04492
584.735	15957.60377
584.939	15765.37283
585.142	16016.28708
585.346	16042.59378
585.549	15925.22726
585.753	15854.40477
585.956	15933.32135
586.159	16190.3208
586.363	16427.10792
586.566	16066.87711
586.769	16062.82987
586.973	16089.13701
587.176	16295.55641
587.379	16323.88991
587.582	16408.89261
587.786	16072.94797
587.989	16443.29945
588.192	16425.08399
588.395	16637.60825
588.599	16429.13186
588.802	16649.75322
589.005	16396.74916
589.208	16518.18696
589.411	16700.35816
589.615	16210.55806
589.818	16305.67548
590.021	16609.2703
590.224	16755.01315
590.427	16759.06173
590.63	16694.28549
590.833	16501.99482
591.036	16629.51165
591.239	16923.03783
591.442	16451.39526
591.645	16840.03553
591.848	16945.30748
592.051	16975.6757
592.254	16578.90869
592.457	17048.56187
592.66	16829.91359
592.863	17050.58654
593.066	17038.43858
593.269	17200.41958
593.472	16706.43085
593.675	17443.42608
593.878	16933.16036
594.081	17259.14221
594.284	17151.82338
594.486	17433.29993
594.689	17200.41958
594.892	17386.72066
595.095	17332.04272
595.298	17583.17495
595.5	17119.42683
595.703	17577.09859
595.906	17408.9975
596.109	17291.54196
596.311	17710.78519
596.514	17386.72066
596.717	17372.54468
596.92	17720.91356
597.122	17654.06792
597.325	17350.26845
597.528	17613.55716
597.73	17850.56403
597.933	17305.71709
598.136	17599.3787
598.338	17534.56492
598.541	17682.42623
598.743	17656.09349
598.946	17609.50615
599.148	17550.76806
599.351	17269.26705
599.554	17629.7613
599.756	17577.09859
599.959	17824.22765
600.161	18286.21411
600.363	17974.15028
600.566	17905.26454
600.768	17595.32774
600.971	18286.21411
601.173	17844.48636
601.376	18215.28291
601.578	17716.8622
601.78	18233.52193
601.983	18111.93408
602.185	18132.19781
602.388	18249.73464
602.59	18363.23031
602.792	18205.15025
602.995	18270.00086
603.197	18105.85503
603.399	18211.22983
603.601	18197.04419
603.804	18385.52548
604.006	18357.14988
604.208	18172.72636
604.41	17964.01977
604.613	18261.89433
604.815	18166.64698
605.017	18572.01229
605.219	18409.84802
605.421	18347.01592
605.623	18320.66806
605.826	18576.06671
606.028	18101.80235
606.23	18334.85529
606.432	18357.14988
606.634	18636.88491
606.836	18525.38754
607.038	18507.14363
607.24	18221.36255
607.442	18379.44494
607.644	18612.55721
607.846	18501.0624
608.048	18569.98508
608.25	18683.51458
608.452	18880.1931
608.654	19131.6721
608.856	18845.72097
609.058	18799.08404
609.26	18624.72099
609.462	18462.54871
609.664	18580.12115
609.866	18991.72854
610.067	18784.8906
610.269	18468.62973
610.471	18397.68668
610.673	18951.16879
610.875	18868.02634
611.077	18932.91743
611.278	18855.85971
611.48	19091.10676
611.682	18531.46891
611.884	19229.03559
612.085	19218.89312
612.287	18979.56044
612.489	19109.36096
612.69	18914.66639
612.892	18884.24872
613.094	19056.62749
613.295	18655.13106
613.497	18825.44378
613.699	18746.36655
613.9	18975.50444
614.102	18786.91822
614.304	19036.34612
614.505	19040.40237
614.707	19052.57119
614.908	18973.47645
615.11	19204.69383
615.311	19243.23522
615.513	18837.61005
615.714	18772.72496
615.916	19038.37424
616.117	18683.51458
616.319	18746.36655
616.52	18675.40493
616.722	19020.12132
616.923	18651.07633
617.124	18843.69323
617.326	18442.27891
617.527	19143.84202
617.729	18979.56044
617.93	19310.17906
618.131	18983.61646
618.333	19300.03577
618.534	19052.57119
618.735	19174.26747
618.937	19070.82469
619.138	19170.21069
619.339	19332.49467
619.54	19474.51483
619.742	19285.83533
619.943	19135.72872
620.144	18910.61065
620.345	19539.44511
620.546	19263.52076
620.748	19713.96641
620.949	19001.86872
621.15	19421.76211
621.351	19066.76833
621.552	19216.86464
621.753	19176.29586
621.954	19062.71198
622.155	18857.88747
622.356	19464.36986
622.558	19535.38684
622.759	19780.9421
622.96	19009.98095
623.161	19302.06442
623.362	19186.4379
623.563	19448.13812
623.764	19052.57119
623.965	19216.86464
624.166	19295.97848
624.366	19391.32913
624.567	19200.63693
624.768	19539.44511
624.969	19547.56169
625.17	19462.34088
625.371	19586.11638
625.572	19571.91185
625.773	19774.85321
625.973	19600.32112
626.174	19316.26509
626.375	19437.99342
626.576	19427.84882
626.777	19983.92666
626.977	19456.25396
627.178	19837.77354
627.379	19543.50339
627.58	19519.15394
627.78	19618.58466
627.981	19616.55536
628.182	19594.23335
628.382	19787.03102
628.583	19793.11999
628.784	19649.02464
628.984	19429.87773
629.185	19918.96703
629.386	19360.89708
629.586	19849.95213
629.787	19843.86282
629.987	19705.84845
630.188	19521.18304
630.388	19803.26834
630.589	19239.17816
630.79	19563.79506
630.99	19494.80508
631.191	19941.29641
631.391	19979.86656
631.591	19701.7895
631.792	19849.95213
631.992	20095.58609
632.193	20184.9228
632.393	19726.14346
632.594	19890.54854
632.794	19584.08715
632.994	19208.75075
633.195	19740.35022
633.395	19833.71404
633.595	20026.55876
633.796	19904.75768
633.996	20079.34393
634.196	19914.90719
634.397	20117.9195
634.597	20042.80005
634.797	19951.4463
634.997	19965.65633
635.198	20258.02252
635.398	19951.4463
635.598	20550.47582
635.798	20266.14505
635.998	19947.38634
636.199	20061.07182
636.399	20101.67697
636.599	19975.80647
636.799	20219.44143
636.999	20014.37797
637.199	19920.99695
637.399	20379.86749
637.599	20347.37402
637.799	20282.3903
637.999	20375.80575
638.199	20442.82665
638.399	20363.62062
638.599	20524.07022
638.799	20641.88527
638.999	20578.91341
639.199	20633.75964
639.399	20243.80826
639.599	20258.02252
639.799	20111.82852
639.999	20379.86749
640.199	20341.28162
640.399	20576.88212
640.599	19653.08337
640.799	21013.70364
640.998	20899.90846
641.198	20727.20837
641.398	20536.25733
641.598	20790.18964
641.798	21054.34789
641.997	20574.85085
642.197	20501.72757
642.397	20477.35435
642.597	20221.47198
642.796	20416.42393
642.996	20495.63421
643.196	20595.16383
643.395	20428.60971
643.595	20906.0043
643.795	20589.06989
643.994	21029.96114
644.194	20757.68268
644.394	20706.89268
644.593	20767.84099
644.793	20966.96477
644.992	20639.85386
645.192	20881.62116
645.392	20737.36637
645.591	20889.74881
645.791	20625.63408
645.99	20930.38805
646.19	20599.22647
646.389	20979.15731
646.589	21023.86455
646.788	20928.35605
646.987	20318.94312
647.187	20855.20675
647.386	20627.66547
647.586	21198.64818
647.785	21040.12222
647.984	21367.36314
648.184	21135.6413
648.383	21064.50921
648.582	20912.10018
648.782	21131.57648
648.981	20775.96772
649.18	21109.22023
649.38	21137.67372
649.579	21221.00639
649.778	21021.83236
649.977	21460.87974
650.177	20983.22152
650.376	21395.82382
650.575	21034.02556
650.774	21009.6393
650.973	20991.35
651.173	21263.69162
651.372	21119.3821
651.571	21286.05126
651.77	21373.46179
651.969	21373.46179
652.168	21194.5831
652.367	21227.10417
652.566	21218.97381
652.765	21109.22023
652.964	21426.31827
653.163	21420.21931
653.362	21034.02556
653.561	21257.59362
653.76	21340.93607
653.959	21540.17215
654.158	21489.34298
654.357	20979.15731
654.556	21046.21891
654.755	21147.83587
654.954	21365.33027
655.153	21405.98854
655.352	21330.772
655.551	21428.35127
655.749	21680.47343
655.948	21582.87055
656.147	21757.74878
656.346	21753.68151
656.545	21885.87549
656.743	21188.48551
656.942	21345.00173
657.141	21513.74067
657.34	21111.25259
657.538	21357.1988
657.737	21328.73919
657.936	21989.60828
658.135	21635.73766
658.333	21727.24468
658.532	21765.88335
658.731	21666.23912
658.929	21733.34543
659.128	21336.87043
659.326	21485.27676
659.525	21664.20566
659.724	21475.11126
659.922	21696.74146
660.121	21314.50968
660.319	21641.83788
660.518	21129.54407
660.716	21645.90471
660.915	21649.97156
661.113	21944.85958
661.312	21428.35127
661.51	21713.00973
661.709	21434.45028
661.907	21627.60408
662.105	21633.70426
662.304	21495.44235
662.502	21408.02149
662.701	21708.94264
662.899	21739.44621
663.097	21808.59088
663.296	21900.11274
663.494	21959.09761
663.692	21688.60742
663.891	21824.86086
664.089	21700.8085
664.287	21617.43721
664.485	21288.08397
664.684	21847.23249
664.882	21582.87055
665.08	21826.89462
665.278	21710.97619
665.476	21774.01798
665.675	22060.80317
665.873	21627.60408
666.071	21509.67435
666.269	21708.94264
666.467	21674.37299
666.665	22011.98332
666.863	21568.63756
667.061	21800.45598
667.259	21719.1104
667.457	22007.91509
667.655	21593.0371
667.853	21696.74146
668.051	21871.63843
668.249	21367.36314
668.447	21320.60802
668.645	21530.00612
668.843	21357.1988
669.041	21780.119
669.239	21157.99813
669.437	21633.70426
669.635	21521.87336
669.833	21306.37862
670.031	21469.01201
670.229	21410.05445
670.426	21534.07252
670.624	21550.33828
670.822	21698.77498
671.02	21530.00612
671.218	21623.53732
671.415	21670.30605
671.613	21422.25229
671.811	21489.34298
672.009	21784.18636
672.206	21955.02958
672.404	21493.40922
672.602	21662.17221
672.799	21664.20566
672.997	21733.34543
673.195	21796.38855
673.392	21708.94264
673.59	21810.62461
673.788	21347.03457
673.985	21068.57377
674.183	21741.47981
674.38	21444.61537
674.578	21668.27258
674.775	21481.21055
674.973	21513.74067
675.17	21845.19868
675.368	21682.50692
675.565	21448.68144
675.763	21550.33828
675.96	21353.1331
676.158	21869.60458
676.355	21058.41241
676.553	21723.17753
676.75	21363.29739
676.947	21593.0371
677.145	21056.38015
677.342	21609.30377
677.539	21440.54932
677.737	21436.48329
677.934	21387.69212
678.131	21296.21489
678.329	21847.23249
678.526	21440.54932
678.723	21550.33828
678.92	21595.07042
679.118	21621.50395
679.315	21554.40475
679.512	21588.97047
679.709	21778.08532
679.906	21883.84161
680.104	21495.44235
680.301	21192.55057
680.498	21483.24365
680.695	21216.94122
680.892	21131.57648
681.089	21097.02612
681.286	21155.96567
681.483	21133.60889
681.68	21190.51804
681.877	21286.05126
682.075	20798.31655
682.272	21227.10417
682.469	21405.98854
682.665	21109.22023
682.862	21038.08999
683.059	21190.51804
683.256	21304.34587
683.453	20962.90063
683.65	21050.28339
683.847	21251.49566
684.044	20966.96477
684.241	20830.82484
684.438	20958.8365
684.635	20820.66588
684.831	21157.99813
685.028	21015.73581
685.225	20944.61217
685.422	20922.26007
685.619	21072.63834
685.815	20771.90435
686.012	20952.74033
686.209	20706.89268
686.405	21111.25259
686.602	20942.58014
686.799	20966.96477
686.996	21676.40647
687.192	21257.59362
687.389	21005.57498
687.586	21092.96145
687.782	20836.92026
687.979	20873.49357
688.175	20741.4296
688.372	20706.89268
688.568	20765.80932
688.765	21034.02556
688.962	20855.20675
689.158	20836.92026
689.355	20609.38316
689.551	20406.26923
689.748	20517.97672
689.944	20552.50705
690.14	20690.64043
690.337	20958.8365
690.533	20601.2578
690.73	20562.66326
690.926	21003.54283
691.123	20591.1012
691.319	20757.68268
691.515	20708.92423
691.712	20607.35182
691.908	20566.72577
692.104	20408.30016
692.301	20753.61939
692.497	20306.7587
692.693	20495.63421
692.889	20666.26255
693.086	20771.90435
693.282	20968.99685
693.478	20820.66588
693.674	20688.60891
693.87	20440.79565
694.067	20633.75964
694.263	20440.79565
694.459	20404.2383
694.655	20536.25733
694.851	20631.72825
695.047	20603.28914
695.243	20607.35182
695.439	20367.68232
695.635	20548.44459
695.831	20517.97672
696.027	20430.64069
696.224	20083.40444
696.42	20168.67915
696.615	20507.82097
696.811	20038.7397
697.007	20387.99103
697.203	20219.44143
697.399	20339.25082
697.595	20682.5144
697.791	20568.75703
697.987	20522.03905
698.183	20467.19902
698.379	20061.07182
698.575	20511.88326
698.77	20091.52552
698.966	20585.00728
699.162	20540.31973
699.358	20546.41337
699.554	20446.88867
699.749	20410.3311
699.945	20511.88326
700.141	20578.91341
700.337	20247.86945
700.532	20371.74403
700.728	20426.57874
700.924	20436.73365
701.119	20304.72797
701.315	19957.53629
701.511	19369.0122
701.706	19979.86656
701.902	20109.7982
702.097	20398.14554
702.293	19959.56629
702.489	20497.66532
702.684	20203.19722
702.88	20209.28876
703.075	19886.48883
703.271	20274.26764
703.466	20010.31774
703.662	20032.64921
703.857	19908.81747
704.053	19961.5963
704.248	19914.90719
704.443	20430.64069
704.639	20406.26923
704.834	20176.80094
705.03	19971.7464
705.225	20241.77767
705.42	20022.49848
705.616	20030.61905
705.811	19782.97174
706.006	19876.33961
706.202	19608.43821
706.397	20191.01423
706.592	20188.98375
706.787	20168.67915
706.983	19831.6843
707.178	19939.26645
707.373	19894.60828
707.568	19900.69791
707.763	19504.95037
707.959	19811.3871
708.154	19555.67835
708.349	19746.4389
708.544	19805.29803
708.739	19827.62483
708.934	19547.56169
709.129	19640.90722
709.324	19241.20669
709.519	19685.55385
709.714	19776.88283
709.909	19616.55536
710.104	19543.50339
710.299	19419.73322
710.494	19799.20899
710.689	19801.23866
710.884	19957.53629
711.079	20119.94984
711.274	19839.8033
711.469	20343.31241
711.664	19730.20252
711.859	19821.53565
712.054	19746.4389
712.249	19403.50221
712.443	19186.4379
712.638	19456.25396
712.833	18977.53244
713.028	19251.34939
713.223	19040.40237
713.417	19433.93557
713.612	19567.85345
713.807	19925.05681
714.002	19876.33961
714.196	20130.10158
714.391	19569.88265
714.586	19835.74379
714.78	19770.79397
714.975	19912.87728
715.17	19827.62483
715.364	19973.77643
715.559	19990.01685
715.754	19636.84853
715.948	19395.38681
716.143	19681.49499
716.337	19259.46362
716.532	19466.39884
716.726	19695.7011
716.921	19927.08675
717.115	19711.93691
717.31	19715.9959
717.504	19750.49804
717.699	19827.62483
717.893	19431.90665
718.088	19563.79506
718.282	19371.04099
718.476	19222.9501
718.671	19113.41749
718.865	19340.60956
719.059	18882.22091
719.254	18983.61646
719.448	18661.21318
719.642	19127.61549
719.837	18774.75256
720.031	18973.47645
720.225	19042.43049
720.419	18979.56044
720.614	18985.64447
720.808	19243.23522
721.002	18578.09393
721.196	18977.53244
721.39	19095.16322
721.585	19241.20669
721.779	19072.85288
721.973	19239.17816
722.167	18618.63908
722.361	18523.36042
722.555	18715.95384
722.749	18472.68376
722.943	18476.7378
723.137	18132.19781
723.331	18150.43547
723.525	18715.95384
723.719	18701.76154
723.913	18898.44352
724.107	18332.82853
724.301	18507.14363
724.495	18411.87492
724.689	18626.7483
724.883	18417.95565
725.077	18797.05639
725.271	18683.51458
725.465	18551.74041
725.659	18582.14837
725.853	18793.00111
726.046	18900.47137
726.24	18529.44179
726.434	18379.44494
726.628	18626.7483
726.822	18622.69369
727.015	18799.08404
727.209	18458.49472
727.403	19018.09324
727.596	18924.80582
727.79	18870.05412
727.984	18436.19804
728.177	18823.41609
728.371	18847.74871
728.565	18861.94301
728.758	18618.63908
728.952	18551.74041
729.146	18738.25641
729.339	18701.76154
729.533	18644.99427
729.726	18659.1858
729.92	18578.09393
730.113	18928.86161
730.307	18713.92635
730.5	18760.55946
730.694	18981.58845
730.887	18711.89887
731.081	18845.72097
731.274	18679.45975
731.468	18545.65892
731.661	18387.55234
731.854	18357.14988
732.048	18389.5792
732.241	18215.28291
732.435	18667.29533
732.628	18403.76733
732.821	18436.19804
733.014	18726.09131
733.208	18525.38754
733.401	18906.55493
733.594	18415.92873
733.788	18383.49863
733.981	18300.4009
734.174	18413.90182
734.367	18614.5845
734.56	18709.8714
734.754	18436.19804
734.947	18837.61005
735.14	18622.69369
735.333	18809.22232
735.526	18610.52993
735.719	18209.2033
735.912	18075.46029
736.105	17943.75902
736.298	17872.84912
736.491	17959.96759
736.684	17818.15011
736.877	18316.6146
737.07	18243.65484
737.263	18132.19781
737.456	18347.01592
737.649	17927.55066
737.842	18213.25637
738.035	17976.1764
738.228	17923.49861
738.421	18140.3034
738.614	18113.96044
738.807	18249.73464
739	17893.10866
739.192	18124.09227
739.385	18381.47178
739.578	18002.51619
739.771	18383.49863
739.964	18093.69704
740.156	18460.52172
740.349	18213.25637
740.542	18417.95565
740.735	18085.59178
740.927	18136.2506
741.12	18342.96236
741.313	18197.04419
741.505	18148.40905
741.698	18140.3034
741.891	17966.04587
742.083	18223.3891
742.276	18253.78785
742.468	18101.80235
742.661	17789.78864
742.854	17650.01678
743.046	17402.92196
743.239	17694.57999
743.431	17931.60273
743.624	17749.27341
743.816	17947.81114
744.009	17777.63393
744.201	17479.88085
744.393	17471.7797
744.586	17520.38735
744.778	17710.78519
744.971	17637.86345
745.163	17781.68548
745.355	17694.57999
745.548	17457.60281
745.74	17789.78864
745.932	17344.19318
746.125	17704.70822
746.317	17532.53955
746.509	17287.49195
746.702	17676.34939
746.894	17313.81723
747.086	17496.0833
747.278	17866.77133
747.471	17601.40419
747.663	17783.71127
747.855	17716.8622
748.047	17686.47747
748.239	17564.94597
748.431	17332.04272
748.623	17978.20251
748.815	17526.46343
749.008	17601.40419
749.2	17704.70822
749.392	17785.73705
749.584	17548.74266
749.776	17619.63369
749.968	17315.84227
750.16	17729.0163
750.352	17852.58993
750.544	17506.20993
750.736	17643.9401
750.928	17289.51695
751.12	17133.60023
751.311	17151.82338
751.503	17526.46343
751.695	17645.96566
751.887	17702.68257
752.079	17874.87506
752.271	17174.09643
752.463	17402.92196
752.654	17346.21827
752.846	17376.59495
753.038	17196.36983
753.23	17613.55716
753.421	17451.52705
753.613	17376.59495
753.805	17662.17022
753.997	17457.60281
754.188	17161.94746
754.38	16706.43085
754.572	17125.50113
754.763	16983.77399
754.955	17093.10516
755.146	17159.92264
755.338	16977.70027
755.53	16953.40561
755.721	17046.53721
755.913	17131.57545
756.104	17172.0716
756.296	17172.0716
756.487	16927.08684
756.679	17451.52705
756.87	16544.49947
757.062	17038.43858
757.253	16667.97083
757.445	16556.64383
757.636	16908.8664
757.827	17060.70991
758.019	16866.35287
758.21	16667.97083
758.401	16742.86744
758.593	16805.62118
758.784	16350.1999
758.975	16364.36696
759.167	16552.5957
759.358	16455.44318
759.549	16172.10742
759.74	16062.82987
759.932	16220.67675
760.123	16475.68289
760.314	16267.22328
760.505	16323.88991
760.696	16510.09088
760.888	16528.30711
761.079	16461.51507
761.27	16368.41471
761.461	16370.43858
761.652	16696.30971
761.843	16471.63493
762.034	16528.30711
762.225	16309.72311
762.416	16410.91652
762.607	16293.53261
762.798	16253.05684
762.989	16234.84298
763.18	16327.93758
763.371	16226.74798
763.562	16232.81923
763.753	15915.10967
763.944	16182.22595
764.135	15961.65086
764.326	16398.77306
764.517	16076.99522
764.708	16101.27886
764.899	15987.95706
765.089	15793.70094
765.28	15761.32597
765.471	15581.24467
765.662	15603.50154
765.853	15536.73118
766.043	15589.33807
766.234	15605.5249
766.425	15627.78188
766.615	15429.4954
766.806	15886.78058
766.997	15706.69381
767.187	15635.87535
767.378	15820.00581
767.569	15607.54826
767.759	15645.9922
767.95	15561.01122
768.141	15830.12312
768.331	15597.43148
768.522	15684.43646
768.712	15737.04492
768.903	15730.97468
769.093	15465.91492
769.284	15190.74809
769.474	15107.79398
769.665	15109.81725
769.855	14972.23433
770.046	15573.15128
770.236	15081.49144
770.426	14958.07131
770.617	15144.21286
770.807	15500.3113
770.998	15071.37507
771.188	15241.32988
771.378	15453.77506
771.569	15297.9816
771.759	14990.4439
771.949	14952.00143
772.139	14954.02473
772.33	15111.84053
772.52	15174.56192
772.71	15380.93628
772.9	14982.35076
773.09	15162.4223
773.281	15184.67827
773.471	15265.60917
773.661	14808.34647
773.851	14806.32314
774.041	14822.50977
774.231	14709.20237
774.421	14707.179
774.611	14769.90306
774.802	14508.88375
774.992	14640.40727
775.182	14347.00088
775.372	14909.51222
775.562	14684.92187
775.752	14745.62288
775.942	14379.37824
776.131	14666.71141
776.321	14278.19756
776.511	14553.39997
776.701	14306.52859
776.891	14535.18886
777.081	14563.51721
777.271	14399.61388
777.461	14355.09526
777.651	14272.12658
777.84	14002.96138
778.03	14011.05715
778.22	13903.78488
778.41	13966.52991
778.599	13905.80895
778.789	14320.69397
778.979	14444.13174
779.169	14237.72405
779.358	14172.96481
779.548	14533.1654
779.738	14371.28394
779.927	14098.0843
780.117	14296.4104
780.307	14251.88986
780.496	14031.29641
780.686	14061.65486
780.875	13790.43234
781.065	13845.08557
781.254	13814.72293
781.444	13747.92279
781.633	13679.0949
781.823	14019.15288
782.012	13812.69873
782.202	13948.31387
782.391	13565.72304
782.581	13687.19249
782.77	13768.1656
782.96	13845.08557
783.149	13249.84018
783.338	13658.8507
783.528	13365.27013
783.717	13559.64925
783.906	13650.75293
784.096	13602.16516
784.285	13946.28985
784.474	13654.80182
784.663	13565.72304
784.853	13610.26326
785.042	13709.4606
785.231	13812.69873
785.42	13448.29051
785.61	13743.87419
785.799	13340.97022
785.988	13598.11609
786.177	13138.447
786.366	13490.81062
786.555	13300.46903
786.744	13197.18328
786.933	13357.17023
787.122	13553.57542
787.312	13363.24516
787.501	13264.01653
787.69	13006.7823
787.879	13018.93683
788.068	12826.4683
788.257	12901.43537
788.445	12838.62563
788.634	13118.19221
788.823	13059.45064
789.012	12982.4727
789.201	12773.78423
789.39	12542.73835
789.579	12844.70422
789.768	13081.7324
789.957	12824.44206
790.145	12913.5915
790.334	13033.11689
790.523	12798.10042
790.712	12954.11058
790.9	12994.62759
791.089	12490.03248
791.278	12488.00525
791.467	12763.65225
791.655	12802.15304
791.844	12536.65713
792.033	12481.9235
792.221	12431.23999
792.41	12473.81441
792.599	11962.71557
792.787	12417.04787
792.976	12327.83266
793.164	12471.78713
793.353	12648.13737
793.541	12640.03034
793.73	12116.90588
793.918	12449.48653
794.107	12181.81484
794.295	12325.80488
794.484	12210.21013
794.672	12198.0409
794.861	12031.70103
795.049	12222.37909
795.238	12147.33291
795.426	12417.04787
795.614	12001.2674
795.803	11928.21935
795.991	11978.94827
796.179	12260.91244
796.368	12277.13623
796.556	12459.62326
796.744	12133.13384
796.932	12252.80037
797.121	11918.07296
797.309	12175.72995
797.497	12082.41984
797.685	11932.27785
797.874	11954.59902
798.062	12169.645
798.25	11741.49226
798.438	12033.72988
798.626	11737.43217
798.814	12127.04841
799.002	11954.59902
799.19	11922.13154
799.378	11792.24044
799.566	11995.18046
799.755	12106.76315
799.943	12104.73458
800.131	11857.19028
800.318	11871.39691
800.506	11694.79912
800.694	11741.49226
800.882	11798.32985
801.07	12019.52779
801.258	12066.19035
801.446	12100.67743
801.634	11585.15313
801.822	11950.5407
802.01	11861.24936
802.197	12256.85642
802.385	12076.33384
802.573	11987.06443
802.761	11916.04366
802.949	11875.45587
803.136	11914.01435
803.324	11853.13117
803.512	12084.44849
803.699	11968.80289
803.887	12133.13384
804.075	12171.67332
804.262	11802.38942
804.45	11983.00636
804.638	11800.35964
804.825	12025.61445
805.013	12072.27646
805.201	12206.15375
805.388	11889.66197
805.576	11869.36742
805.763	11745.55232
805.951	11757.73227
806.138	11601.39866
806.326	11786.15094
806.513	11459.23003
806.701	11692.76888
806.888	11611.55181
807.075	11741.49226
807.263	11741.49226
807.45	12086.47713
807.638	11660.28378
807.825	11715.10106
808.012	11664.34454
808.2	11952.56986
808.387	11950.5407
808.574	11974.89014
808.761	11814.56793
808.949	11849.07202
809.136	11473.44898
809.323	12045.90279
809.51	11802.38942
809.698	11629.82691
809.885	11771.94182
810.072	12112.84881
810.259	11853.13117
810.446	11845.01285
810.633	11735.40212
810.82	11978.94827
811.008	11855.16073
811.195	12058.07542
811.382	11956.62817
811.569	12001.2674
811.756	11826.74612
811.943	12088.50577
812.13	12084.44849
812.317	12072.27646
812.504	12147.33291
812.691	12070.24777
812.878	11857.19028
813.064	12037.78755
813.251	11889.66197
813.438	12021.55668
813.625	11607.49058
813.812	11924.16082
813.999	11822.68676
814.186	11936.33632
814.372	11627.79638
814.559	11907.92637
814.746	11615.61301
814.933	11741.49226
815.12	11558.75289
815.306	11436.88501
815.493	11609.5212
815.68	11773.97172
815.866	11570.93781
816.053	11855.16073
816.24	11879.5148
816.426	11607.49058
816.613	11747.58233
816.799	11865.3084
816.986	11704.9502
817.173	11968.80289
817.359	11668.40527
817.546	11672.46596
817.732	11581.09166
817.919	11751.64233
818.105	11473.44898
818.292	11749.61234
818.478	11607.49058
818.665	11786.15094
818.851	11546.56763
819.037	11654.19257
819.224	11483.60508
819.41	11834.86475
819.597	11603.4293
819.783	11857.19028
819.969	11530.3201
820.156	11847.04244
820.342	11449.07334
820.528	11546.56763
820.714	11445.0106
820.901	11792.24044
821.087	11554.69118
821.273	11633.88795
821.459	11579.06091
821.646	11922.13154
821.832	11668.40527
822.018	11617.64359
822.204	10981.59165
822.39	11337.33372
822.576	10892.09551
822.762	11386.09649
822.948	10995.82767
823.134	11247.92025
823.32	11215.40135
823.507	11408.44419
823.693	11306.85406
823.879	11501.88547
824.065	11414.53881
824.25	11184.91245
824.436	11207.2712
824.622	11036.499
824.808	11136.12529
824.994	11288.56518
825.18	11069.0329
825.366	11180.84709
825.552	10892.09551
825.738	11467.3552
825.923	11003.96229
826.109	11402.34948
826.295	11036.499
826.481	11085.2988
826.667	11359.68404
826.852	11321.07819
827.038	11223.53132
827.224	11140.19112
827.409	10922.60803
827.595	10847.33916
827.781	10666.22132
827.966	10757.80954
828.152	10521.66501
828.338	10770.01947
828.523	10570.53614
828.709	10480.9335
828.894	10421.8637
829.08	10654.00771
829.266	10556.28281
829.451	10757.80954
829.637	10132.46452
829.822	10694.71805
830.008	10594.969
830.193	10833.09733
830.378	10118.19124
830.564	10660.11457
830.749	10678.4345
830.935	10747.63427
831.12	10438.1599
831.305	10635.68646
831.491	10560.35526
831.676	10706.93021
831.861	10466.67626
832.047	10434.08593
832.232	10615.32835
832.417	10635.68646
832.602	10091.68192
832.788	10425.93783
832.973	10654.00771
833.158	10572.57228
833.343	10358.70802
833.528	10377.04484
833.714	10411.67815
833.899	10152.85372
834.084	10052.93324
834.269	10393.34334
834.454	10061.09128
834.639	10107.99563
834.824	9877.47966
835.009	10332.21962
835.194	10211.97459
835.379	10434.08593
835.564	9946.85786
835.749	10112.07392
835.934	9993.78061
836.119	10203.82067
836.304	9846.86623
836.489	9934.61588
836.674	9867.27556
836.859	9957.05911
837.044	9820.33187
837.228	9863.19381
837.413	9722.33686
837.598	10073.32792
837.783	9669.24157
837.968	9738.67178
838.152	9534.41408
838.337	9583.45016
838.522	9558.93326
838.707	9783.58782
838.891	9626.34931
839.076	9765.21396
839.261	9622.26397
839.445	9787.67073
839.63	9981.54063
839.815	9714.16903
839.999	9746.83888
840.184	9840.74314
840.368	9961.13951
840.553	9989.70067
840.737	9497.63102
840.922	9750.92234
841.106	9567.10581
841.291	9579.36417
841.475	9393.38407
841.66	9620.22128
841.844	9176.5771
842.029	9387.25058
842.213	9511.93615
842.397	9481.28133
842.582	9411.78365
842.766	9362.71516
842.951	9088.57305
843.135	9205.22277
843.319	9021.01342
843.504	9248.18507
843.688	9411.78365
843.872	9471.06225
844.056	9329.99758
844.241	9162.25302
844.425	9041.48804
844.609	9215.45257
844.793	8922.71082
844.977	9111.08874
845.161	9031.25095
845.346	9094.7139
845.53	8873.54419
845.714	9231.81935
845.898	8883.78809
846.082	9246.13941
846.266	9078.33796
846.45	9057.86648
846.634	8943.19388
846.818	9315.68231
847.002	8912.46862
847.186	8992.34602
847.37	8937.04915
847.554	9117.22902
847.738	8937.04915
847.922	8963.67518
848.106	9117.22902
848.29	8604.9921
848.473	8789.52727
848.657	8570.11857
848.841	8385.40265
849.025	8701.37911
849.209	8295.04032
849.392	8586.53032
849.576	8440.83368
849.76	8625.50342
849.944	8531.13582
850.127	8586.53032
850.311	8391.56234
850.495	8520.87607
850.678	8818.21939
850.862	8713.68089
851.046	8609.09452
851.229	8527.03198
851.413	8393.61554
851.596	8280.66101
851.78	8568.06701
851.964	8607.04332
852.147	8151.20372
852.331	8420.30531
852.514	8210.80494
852.698	8237.51731
852.881	7906.45588
853.065	7807.65199
853.248	7712.91987
853.431	7896.16604
853.615	7838.53334
853.798	7906.45588
853.982	7945.55262
854.165	7766.46956
854.348	7671.71811
854.532	8099.80988
854.715	7700.56023
854.898	8134.75905
855.081	7706.74014
855.265	7968.18418
855.448	7892.04995
855.631	7937.32234
855.814	7642.87185
855.997	7739.69649
856.181	7768.52888
856.364	7752.05373
856.547	7721.1592
856.73	7871.46829
856.913	7675.83867
857.096	7894.108
857.279	7894.108
857.462	8034.00741
857.645	7727.33849
857.828	7838.53334
858.011	7591.35031
858.194	7490.32932
858.377	7155.97028
858.56	7482.08043
858.743	7184.8883
858.926	7473.8312
859.109	7292.2601
859.292	7461.4567
859.475	7300.517
859.658	7543.93871
859.841	7236.51681
860.023	7279.87409
860.206	7131.17994
860.389	7298.45281
860.572	7007.18
860.755	7052.65601
860.937	7044.38845
861.12	7366.55959
861.303	7246.84085
861.486	7403.69872
861.668	7189.01909
861.851	7199.34568
862.034	6976.1674
862.216	7292.2601
862.399	6698.89511
862.581	7112.58508
862.764	6754.79634
862.947	7110.51888
863.129	6963.76093
863.312	6986.50549
863.494	7013.38192
863.677	7308.77356
863.859	7017.51641
864.042	7003.04528
864.224	6953.42159
864.406	7110.51888
864.589	6694.75361
864.771	6957.5574
864.954	6508.29088
865.136	6593.2582
865.318	6307.11518
865.501	6773.42637
865.683	6512.43653
865.865	6576.68226
866.048	6645.04848
866.23	6748.58592
866.412	6609.83266
866.594	6713.38963
866.777	6595.33009
866.959	6485.48814
867.141	6481.34189
867.323	6651.26235
867.505	6332.01479
867.687	6468.90257
867.869	6375.581
868.052	6578.75433
868.234	6499.9993
868.416	6609.83266
868.598	6261.45717
868.78	6568.39374
868.962	6433.65329
869.144	6640.90579
869.326	6514.50932
869.508	6381.80391
869.69	6334.0896
869.872	6671.97374
870.054	6458.53583
870.236	6634.69158
870.417	6300.88976
870.599	6385.95239
870.781	6130.64646
870.963	6460.60923
871.145	6199.17797
871.327	6473.0491
871.508	6215.78782
871.69	6217.86394
871.872	6157.64677
872.054	6267.68393
872.235	6093.25486
872.417	6091.17732
872.599	5895.78391
872.78	6265.60836
872.962	6012.21357
873.144	6151.41629
873.325	5997.6639
873.507	6101.56476
873.689	5852.10373
873.87	6008.05664
874.052	5958.16614
874.233	6147.26251
874.415	6035.07499
874.596	6103.64218
874.778	5737.65391
874.959	5899.94339
875.141	5985.19184
875.322	6035.07499
875.503	5916.58035
875.685	6356.91103
875.866	5976.87667
876.048	6103.64218
876.229	5976.87667
876.41	6242.77562
876.592	6197.10163
876.773	6172.18376
876.954	5706.42794
877.136	5891.62435
877.317	5825.0584
877.498	5976.87667
877.679	5837.54135
877.86	6084.94458
878.042	5954.00798
878.223	6126.49222
878.404	5947.77057
878.585	5989.34929
878.766	5700.1821
878.947	5937.37442
879.128	5725.16416
879.309	6076.63392
879.49	5754.3056
879.672	5935.29512
879.853	5843.78251
880.034	6016.3704
880.215	6032.9968
880.396	6001.82107
880.576	5891.62435
880.757	6051.69969
880.938	5785.52343
881.119	6145.18559
881.3	5870.82508
881.481	6109.87429
881.662	6145.18559
881.843	6327.86509
882.023	5968.56111
882.204	6066.24507
882.385	5958.16614
882.566	5895.78391
882.747	5718.91896
882.927	6111.95161
883.108	6008.05664
883.289	6082.86695
883.469	5872.90511
883.65	6016.3704
883.831	5958.16614
884.011	6228.24422
884.192	5981.0343
884.373	6361.06007
884.553	5941.53295
884.734	6082.86695
884.914	5879.14507
885.095	6124.41506
885.275	6084.94458
885.456	6398.39729
885.636	6053.77768
885.817	6358.98556
885.997	6093.25486
886.178	6334.0896
886.358	6095.33237
886.538	6400.47136
886.719	5966.48216
886.899	6190.87248
887.08	6253.15449
887.26	6203.33057
887.44	6047.54366
887.621	6302.96492
887.801	5931.13645
887.981	6244.85144
888.161	6045.46561
888.342	6296.73936
888.522	5956.08707
888.702	6093.25486
888.882	6024.68379
889.062	6334.0896
889.242	5962.3242
889.423	6051.69969
889.603	6155.56997
889.783	6286.36294
889.963	5935.29512
890.143	6207.48308
890.323	5924.89826
890.503	6172.18376
890.683	6136.87766
890.863	6244.85144
891.043	6074.5562
891.223	6323.71529
891.403	6344.46333
891.583	6327.86509
891.763	5806.33237
891.943	5949.84973
892.122	5648.12524
892.302	6082.86695
892.482	5812.57459
892.662	5866.66495
892.842	5804.25158
893.022	5951.92887
893.201	5825.0584
893.381	6037.15316
893.561	6032.9968
893.741	6273.91048
893.92	5872.90511
894.1	6151.41629
894.28	5833.38046
894.459	5829.21948
894.639	5729.32751
894.819	6101.56476
894.998	5795.9282
895.178	5837.54135
895.357	5777.19919
895.537	5926.97768
895.716	5970.64003
895.896	5891.62435
896.075	5729.32751
896.255	5798.00908
896.434	5812.57459
896.614	5816.73595
896.793	5521.04463
896.973	5683.52551
897.152	5510.6243
897.331	5920.73935
897.511	5625.21555
897.69	5666.86741
897.87	5533.54825
898.049	5266.62082
898.228	5404.30333
898.407	5616.88405
898.587	5237.40234
898.766	5504.37182
898.945	5270.79452
899.124	5414.72965
899.304	5074.52999
899.483	5418.90002
899.662	4924.06117
899.841	4976.32084
900.02	4924.06117
900.199	5199.82898
900.378	4955.4187
900.557	5158.07195
900.737	4913.60752
900.916	5254.09918
901.095	4754.64163
901.274	5024.38701
901.453	4875.96962
901.632	4783.9347
901.811	4572.50708
901.989	4817.40705
902.168	4698.13532
902.347	5016.02855
902.526	4580.8848
902.705	4714.87965
902.884	4580.8848
903.063	4800.6716
903.242	4765.10395
903.42	4859.23928
903.599	4620.6741
903.778	4677.20289
903.957	4557.84521
904.135	4624.86197
904.314	4524.32829
904.493	4551.56122
904.672	4266.47945
904.85	4455.18177
905.029	4214.03118
905.207	4274.86994
905.386	3991.50439
905.565	4302.13665
905.743	4136.3834
905.922	4258.08863
906.1	3953.69375
906.279	3993.60479
906.457	3789.77231
906.636	4155.27336
906.814	3850.73162
906.993	3959.99598
907.171	3558.39943
907.35	4142.68024
907.528	3558.39943
907.707	3932.685
907.885	3488.94327
908.063	3949.49216
908.242	3619.42003
908.42	3817.10095
908.598	3446.83899
908.777	3777.15797
908.955	3381.56321
909.133	3709.86967
909.311	3377.35129
909.49	3808.69249
909.668	3371.03327
909.846	3703.56037
910.024	3564.71263
910.202	3720.38477
910.38	3392.09272
910.559	3962.09668
910.737	3451.04974
910.915	3869.64664
911.093	3573.12997
911.271	3491.04829
911.449	3577.33853
911.627	3615.21222
911.805	3446.83899
911.983	3476.31274
912.161	3493.1533
912.339	3568.92134
912.517	3758.23515
912.695	3867.54505
912.872	3846.52806
913.05	3970.49929
913.228	3688.83801
913.406	3754.02986
913.584	3556.29499
913.762	3796.07921
913.939	3581.54702
914.117	3543.66797
914.295	3581.54702
914.473	3772.95304
914.65	3764.54293
914.828	3995.70516
915.006	3526.83092
915.184	3737.20794
915.361	3394.19856
915.539	3611.00433
915.716	3295.20489
915.894	3718.28179
916.072	3354.18446
916.249	3535.24959
916.427	3261.49625
916.604	3640.45796
916.782	3539.45882
916.959	3634.14678
917.137	3659.39049
917.314	3539.45882
917.492	3269.92382
917.669	3278.35111
917.847	3305.73794
918.024	3240.42616
918.201	3166.66775
918.379	3354.18446
918.556	3248.8544
918.733	3181.42104
918.911	3025.41797
919.088	3187.74364
919.265	3156.12919
919.442	3282.56466
919.62	2854.56178
919.797	3463.68156
919.974	3267.81695
920.151	3295.20489
920.328	2957.93082
920.506	3362.60901
920.683	3042.28732
920.86	3135.05086
921.037	2713.16588
921.214	2966.36756
921.391	2751.1588
921.568	3088.67291
921.745	2953.71237
921.922	3065.48106
922.099	2799.699
922.276	2985.34934
922.453	2789.14739
922.63	2972.69496
922.807	2641.39002
922.984	2801.80928
923.161	2521.02789
923.338	2860.89149
923.514	2628.72218
923.691	2844.01198
923.868	2544.25868
924.045	2683.61291
924.222	2768.04316
924.399	2692.05687
924.575	2599.16215
924.752	2774.37457
924.929	2394.29073
925.105	2692.05687
925.282	2328.795
925.459	2641.39002
925.635	2333.02082
925.812	2677.2798
925.989	2442.87794
926.165	2480.89874
926.342	2485.12305
926.518	2377.38954
926.695	2400.62851
926.871	2385.84021
927.048	2275.96902
927.224	2343.5852
927.401	1931.41657
927.577	2259.06347
927.754	1867.98256
927.93	2256.95023
928.107	2117.45765
928.283	2208.34336
928.459	2022.32951
928.636	2242.15733
928.812	2174.52719
928.988	2444.99029
929.165	1969.47454
929.341	2197.77604
929.517	1939.87406
929.693	2045.58438
929.87	1829.91994
930.046	2121.68522
930.222	1762.24947
930.398	1876.4407
930.574	1813.00273
930.751	2037.12816
930.927	1781.28222
931.103	2028.67183
931.279	1650.16205
931.455	1834.14919
931.631	1764.36423
931.807	1734.75718
931.983	1618.43776
932.159	1836.26381
932.335	1637.4724
932.511	1715.72371
932.687	1487.30668
932.863	1664.96653
933.039	1664.96653
933.215	1664.96653
933.391	1535.95263
933.566	1550.75782
933.742	1364.63399
933.918	1396.35953
934.094	1318.1037
934.27	1449.23576
934.445	1286.37898
934.621	1445.00565
934.797	1038.95115
934.973	1144.68274
935.148	1165.83045
935.324	1110.84729
935.5	1106.61795
935.675	1148.91225
935.851	1077.01306
936.027	1157.37131
936.202	781.03494
936.378	948.03341
936.553	783.14849
936.729	855.01504
936.904	819.08044
937.08	793.71643
937.255	599.30939
937.431	730.31258
937.606	578.18424
937.782	554.94811
937.957	601.42197
938.133	580.2967
938.308	531.71362
938.483	601.42197
938.659	478.91436
938.834	421.90167
939.009	409.23374
939.185	462.02054
939.36	360.67883
939.535	400.78878
939.71	440.90465
939.886	457.79724
940.061	375.45547
940.236	407.12248
940.411	352.2354
940.586	371.23349
940.761	231.94784
940.937	354.34623
941.112	293.13931
941.287	386.01073
941.462	278.36751
941.637	396.5664
941.812	345.90302
941.987	303.69116
942.162	253.04654
942.337	229.83807
942.512	282.58793
942.687	295.24965
942.862	162.33619
943.037	261.48656
943.212	193.97512
943.386	229.83807
943.561	160.22709
943.736	193.97512
943.911	196.08454
944.086	227.72833
944.26	153.89993
944.435	350.12459
944.61	164.4453
944.785	257.26651
944.959	177.10045
945.134	301.58075
945.309	141.24617
945.483	177.10045
945.658	202.41294
945.833	196.08454
946.007	198.19399
946.182	293.13931
946.357	172.88198
946.531	193.97512
946.706	120.15828
946.88	227.72833
947.055	219.28955
947.229	246.71673
947.404	210.85109
947.578	210.85109
947.752	240.38709
947.927	183.42829
948.101	229.83807
948.276	229.83807
948.45	223.5089
948.624	286.80843
948.799	160.22709
948.973	227.72833
949.147	246.71673
949.321	257.26651
949.496	244.60683
949.67	231.94784
949.844	280.47771
950.018	234.05762
950.193	118.04961
950.367	261.48656
950.541	134.91958
950.715	234.05762
950.889	160.22709
951.063	189.75633
951.237	225.6186
951.411	231.94784
951.585	231.94784
951.759	333.23872
951.933	193.97512
952.107	280.47771
952.281	231.94784
952.455	242.49695
952.629	238.27725
952.803	257.26651
952.977	170.77278
953.151	236.16742
953.325	212.96067
953.499	219.28955
953.672	223.5089
953.846	253.04654
954.02	210.85109
954.194	377.56649
954.368	219.28955
954.541	223.5089
954.715	160.22709
954.889	200.30345
955.062	240.38709
955.236	280.47771
955.41	312.13296
955.583	318.4645
955.757	202.41294
955.93	208.74152
956.104	227.72833
956.278	274.14716
956.451	253.04654
956.625	210.85109
956.798	229.83807
956.972	193.97512
957.145	215.07028
957.319	193.97512
957.492	181.31899
957.665	265.70668
957.839	229.83807
958.012	415.56764
958.185	103.28953
958.359	244.60683
958.532	229.83807
958.705	320.57505
958.879	250.93658
959.052	282.58793
959.225	297.36
959.398	312.13296
959.572	210.85109
959.745	246.71673
959.918	219.28955
960.091	272.03701
960.264	219.28955
960.438	255.15652
960.611	282.58793
960.784	210.85109
960.957	240.38709
961.13	288.91871
961.303	312.13296
961.476	261.48656
961.649	210.85109
961.822	229.83807
961.995	267.81677
962.168	244.60683
962.341	257.26651
962.514	208.74152
962.686	219.28955
962.859	236.16742
963.032	143.35507
963.205	276.25732
963.378	145.464
963.551	236.16742
963.723	187.64696
963.896	210.85109
964.069	272.03701
964.242	223.5089
964.414	160.22709
964.587	206.63197
964.76	212.96067
964.932	282.58793
965.105	236.16742
965.278	210.85109
965.45	185.53762
965.623	253.04654
965.795	208.74152
965.968	185.53762
966.14	198.19399
966.313	276.25732
966.485	189.75633
966.658	231.94784
966.83	132.81075
967.003	118.04961
967.175	143.35507
967.348	227.72833
967.52	238.27725
967.692	322.68561
967.865	130.70195
968.037	185.53762
968.209	181.31899
968.382	143.35507
968.554	261.48656
968.726	193.97512
968.898	185.53762
969.071	162.33619
969.243	204.52245
969.415	101.18103
969.587	118.04961
969.759	151.79091
969.932	177.10045
970.104	177.10045
970.276	183.42829
970.448	151.79091
970.62	130.70195
970.792	149.68192
970.964	132.81075
971.136	210.85109
971.308	193.97512
971.48	134.91958
971.652	124.37568
971.824	137.02842
971.996	147.57295
972.168	196.08454
972.339	172.88198
972.511	126.48442
972.683	196.08454
972.855	153.89993
973.027	162.33619
973.199	71.66443
973.37	101.18103
973.542	151.79091
973.714	179.20971
973.886	151.79091
974.057	151.79091
974.229	181.31899
974.401	160.22709
974.572	206.63197
974.744	94.85568
974.915	147.57295
975.087	126.48442
975.259	198.19399
975.43	109.61514
975.602	27.39791
975.773	109.61514
975.945	109.61514
976.116	141.24617
976.288	120.15828
976.459	212.96067
976.63	177.10045
976.802	113.83233
976.973	164.4453
977.145	204.52245
977.316	124.37568
977.487	118.04961
977.659	101.18103
977.83	143.35507
978.001	84.31387
978.172	130.70195
978.344	130.70195
978.515	185.53762
978.686	141.24617
978.857	168.6636
979.028	145.464
979.2	111.72373
979.371	128.59318
979.542	59.01582
979.713	120.15828
979.884	88.53052
980.055	103.28953
980.226	92.74727
980.397	77.98905
980.568	158.11802
980.739	84.31387
980.91	143.35507
981.081	143.35507
981.252	84.31387
981.423	84.31387
981.594	130.70195
981.765	126.48442
981.936	111.72373
982.106	124.37568
982.277	63.23193
982.448	143.35507
982.619	80.0973
982.79	90.63889
982.96	84.31387
983.131	92.74727
983.302	134.91958
983.472	162.33619
983.643	44.26014
983.814	71.66443
983.984	33.72107
984.155	69.55627
984.326	16.85977
984.496	101.18103
984.667	177.10045
984.837	67.44814
985.008	59.01582
985.178	69.55627
985.349	75.88082
985.519	56.90779
985.69	162.33619
985.86	-8.42931
986.031	122.26697
986.201	40.04444
986.371	61.12386
986.542	50.58386
986.712	84.31387
986.882	-4.2147
987.053	63.23193
987.223	25.29023
987.393	101.18103
987.563	80.0973
987.734	90.63889
987.904	0
988.074	118.04961
988.244	109.61514
988.414	59.01582
988.585	94.85568
988.755	42.15228
988.925	118.04961
989.095	101.18103
989.265	111.72373
989.435	86.42218
989.605	73.77262
989.775	84.31387
989.945	46.36803
990.115	94.85568
990.285	71.66443
990.455	61.12386
990.625	21.07496
990.795	67.44814
990.965	109.61514
991.134	10.53718
991.304	35.82884
991.474	75.88082
991.644	73.77262
991.814	37.93663
991.984	25.29023
992.153	46.36803
992.323	50.58386
992.493	25.29023
992.662	50.58386
992.832	-29.50088
993.002	115.94096
993.171	80.0973
993.341	128.59318
993.511	-8.42931
993.68	4.2148
993.85	33.72107
994.019	33.72107
994.189	82.20557
994.358	59.01582
994.528	77.98905
994.697	6.32224
994.867	88.53052
995.036	42.15228
995.206	56.90779
995.375	54.79979
995.544	88.53052
995.714	18.96735
995.883	18.96735
996.052	10.53718
996.222	92.74727
996.391	50.58386
996.56	86.42218
996.73	122.26697
996.899	-14.75104
997.068	25.29023
997.237	37.93663
997.406	-4.2147
997.576	25.29023
997.745	96.96411
997.914	31.61332
998.083	10.53718
998.252	67.44814
998.421	25.29023
998.59	35.82884
998.759	-4.2147
998.928	25.29023
999.097	113.83233
999.266	50.58386
999.435	84.31387
999.604	109.61514
999.773	46.36803
999.942	4.2148
1000.111	8.4297
1000.28	92.74727
1000.448	109.61514
1000.617	25.29023
1000.786	-4.2147
1000.955	14.75222
1001.124	44.26014
1001.292	94.85568
1001.461	50.58386
1001.63	23.18258
1001.798	50.58386
1001.967	25.29023
1002.136	54.79979
1002.304	0
1002.473	14.75222
1002.642	84.31387
1002.81	25.29023
1002.979	6.32224
1003.147	37.93663
1003.316	67.44814
1003.484	-8.42931
1003.653	-18.9654
1003.821	59.01582
1003.99	10.53718
1004.158	37.93663
1004.327	82.20557
1004.495	27.39791
1004.663	0
1004.832	126.48442
1005	42.15228
1005.168	71.66443
1005.337	65.34002
1005.505	54.79979
1005.673	29.5056
1005.842	44.26014
1006.01	12.64469
1006.178	33.72107
1006.346	75.88082
1006.514	-25.28676
1006.683	86.42218
1006.851	92.74727
1007.019	29.5056
1007.187	29.5056
1007.355	27.39791
1007.523	33.72107
1007.691	40.04444
1007.859	6.32224
1008.027	12.64469
1008.195	-2.10736
1008.363	63.23193
1008.531	77.98905
1008.699	18.96735
1008.867	12.64469
1009.035	54.79979
1009.203	14.75222
1009.37	18.96735
1009.538	-16.85823
1009.706	16.85977
1009.874	-8.42931
1010.042	-12.64382
1010.209	21.07496
1010.377	105.39804
1010.545	12.64469
1010.713	42.15228
1010.88	8.4297
1011.048	-6.32202
1011.216	86.42218
1011.383	50.58386
1011.551	44.26014
1011.718	59.01582
1011.886	12.64469
1012.054	-2.10736
1012.221	31.61332
1012.389	16.85977
1012.556	6.32224
1012.724	54.79979
1012.891	4.2148
1013.058	50.58386
1013.226	25.29023
1013.393	105.39804
1013.561	75.88082
1013.728	2.10739
1013.895	-6.32202
1014.063	27.39791
1014.23	84.31387
1014.397	46.36803
1014.565	63.23193
1014.732	-48.46317
1014.899	23.18258
1015.066	-16.85823
1015.233	50.58386
1015.401	56.90779
1015.568	10.53718
1015.735	16.85977
1015.902	42.15228
1016.069	18.96735
1016.236	27.39791
1016.403	16.85977
1016.57	33.72107
1016.737	65.34002
1016.904	44.26014
1017.071	50.58386
1017.238	-8.42931
1017.405	10.53718
1017.572	44.26014
1017.739	10.53718
1017.906	48.47593
1018.073	61.12386
1018.24	88.53052
1018.407	42.15228
1018.573	16.85977
1018.74	48.47593
1018.907	37.93663
1019.074	-50.56997
1019.241	29.5056
1019.407	61.12386
1019.574	-4.2147
1019.741	23.18258
1019.907	44.26014
1020.074	12.64469
1020.241	44.26014
1020.407	50.58386
1020.574	-52.67674
1020.74	8.4297
1020.907	18.96735
1021.073	23.18258
1021.24	-12.64382
1021.406	-6.32202
1021.573	33.72107
1021.739	33.72107
1021.906	14.75222
1022.072	16.85977
1022.239	37.93663
1022.405	-16.85823
1022.571	-23.17966
1022.738	88.53052
1022.904	67.44814
1023.07	27.39791
1023.237	16.85977
1023.403	52.69182
1023.569	25.29023
1023.735	59.01582
1023.902	33.72107
1024.068	42.15228
1024.234	-8.42931
1024.4	35.82884
1024.566	8.4297
1024.732	2.10739
1024.898	-40.03573
1025.065	37.93663
1025.231	44.26014
1025.397	59.01582
1025.563	33.72107
1025.729	52.69182
1025.895	0
1026.061	-25.28676
1026.227	88.53052
1026.392	84.31387
1026.558	35.82884
1026.724	42.15228
1026.89	-8.42931
1027.056	-6.32202
1027.222	63.23193
1027.388	-21.07254
1027.553	29.5056
1027.719	88.53052
1027.885	69.55627
1028.051	40.04444
1028.216	21.07496
1028.382	-14.75104
1028.548	0
1028.713	4.2148
1028.879	-80.06246
1029.045	-46.35635
1029.21	35.82884
1029.376	21.07496
1029.541	21.07496
1029.707	8.4297
1029.873	-6.32202
1030.038	27.39791
1030.204	50.58386
1030.369	27.39791
1030.534	54.79979
1030.7	16.85977
1030.865	59.01582
1031.031	-48.46317
1031.196	69.55627
1031.361	77.98905
1031.527	-12.64382
1031.692	10.53718
1031.857	50.58386
1032.023	61.12386
1032.188	-8.42931
1032.353	-6.32202
1032.518	33.72107
1032.684	-29.50088
1032.849	52.69182
1033.014	33.72107
1033.179	86.42218
1033.344	52.69182
1033.509	94.85568
1033.674	-21.07254
1033.839	75.88082
1034.004	67.44814
1034.17	23.18258
1034.335	50.58386
1034.5	52.69182
1034.664	10.53718
1034.829	29.5056
1034.994	-40.03573
1035.159	8.4297
1035.324	-2.10736
1035.489	37.93663
1035.654	-4.2147
1035.819	42.15228
1035.984	75.88082
1036.148	0
1036.313	71.66443
1036.478	-14.75104
1036.643	-12.64382
1036.807	25.29023
1036.972	-63.21022
1037.137	0
1037.301	-6.32202
1037.466	-48.46317
1037.631	-6.32202
1037.795	8.4297
1037.96	8.4297
1038.124	-16.85823
1038.289	-52.67674
1038.454	42.15228
1038.618	2.10739
1038.783	-16.85823
1038.947	-4.2147
1039.111	84.31387
1039.276	33.72107
1039.44	12.64469
1039.605	16.85977
1039.769	77.98905
1039.933	44.26014
1040.098	-25.28676
1040.262	8.4297
1040.426	8.4297
1040.591	25.29023
1040.755	-14.75104
1040.919	-16.85823
1041.083	-14.75104
1041.248	63.23193
1041.412	-12.64382
1041.576	37.93663
1041.74	65.34002
1041.904	-25.28676
1042.068	-90.59428
1042.232	-50.56997
1042.397	-25.28676
1042.561	46.36803
1042.725	-8.42931
1042.889	160.22709
1043.053	8.4297
1043.217	0
1043.381	-23.17966
1043.544	-33.71489
1043.708	12.64469
1043.872	8.4297
1044.036	-8.42931
1044.2	-23.17966
1044.364	4.2148
1044.528	59.01582
1044.691	31.61332
1044.855	-23.17966
1045.019	33.72107
1045.183	35.82884
1045.346	-33.71489
1045.51	10.53718
1045.674	6.32224
1045.837	14.75222
1046.001	8.4297
1046.165	-16.85823
1046.328	101.18103
1046.492	-4.2147
1046.655	-6.32202
1046.819	21.07496
1046.983	-6.32202
1047.146	-23.17966
1047.31	-23.17966
1047.473	14.75222
1047.636	-67.42343
1047.8	105.39804
1047.963	59.01582
1048.127	-6.32202
1048.29	2.10739
