Data from Scatter_Coeff_Baseline_USB4F045381__38__0038.txt Node

Date: Thu Feb 13 19:23:40 EST 2025
User: mmckonesweet
Spectrometer: USB4F04538
Trigger mode: 4
Integration Time (sec): 2.400000E-3
Scans to average: 1
Electric dark correction enabled: true
Nonlinearity correction enabled: true
Boxcar width: 0
XAxis mode: Wavelengths
Number of Pixels in Spectrum: 3648
>>>>>Begin Spectral Data<<<<<
345.52	-29.67646
345.736	-29.67646
345.952	-29.67646
346.168	31.43768
346.384	1.93177
346.6	-8.60492
346.816	20.89932
347.032	20.89932
347.248	-78.13156
347.464	8.25407
347.68	-19.141
347.896	20.89932
348.112	-33.89048
348.328	39.86879
348.544	-0.17561
348.76	-29.67646
348.975	58.84015
349.191	-6.49763
349.407	-23.35526
349.623	29.32996
349.839	-2.28298
350.055	41.97663
350.27	33.54542
350.486	-80.238
350.702	25.11459
350.918	-21.24814
351.133	69.38059
351.349	-33.89048
351.565	-14.92664
351.781	-21.24814
351.996	8.25407
352.212	-10.71218
352.428	-0.17561
352.644	39.86879
352.859	20.89932
353.075	-27.56942
353.291	-29.67646
353.506	-23.35526
353.722	-63.38577
353.938	-4.39031
354.153	-12.81942
354.369	-4.39031
354.584	-23.35526
354.8	-40.21131
355.016	-0.17561
355.231	12.46906
355.447	-0.17561
355.662	-46.53192
355.878	-25.46235
356.093	4.03918
356.309	27.22227
356.524	-46.53192
356.74	33.54542
356.955	12.46906
357.171	54.62413
357.386	-2.28298
357.602	50.4082
357.817	-29.67646
358.033	54.62413
358.248	18.79172
358.464	20.89932
358.679	-25.46235
358.895	-54.95905
359.11	86.24649
359.325	10.36155
359.541	-33.89048
359.756	33.54542
359.972	46.19237
360.187	75.70514
360.402	54.62413
360.618	-6.49763
360.833	29.32996
361.048	12.46906
361.264	12.46906
361.479	-21.24814
361.694	-25.46235
361.909	25.11459
362.125	-12.81942
362.34	-12.81942
362.555	46.19237
362.77	-35.99745
362.986	-25.46235
363.201	-40.21131
363.416	-42.31821
363.631	-19.141
363.847	50.4082
364.062	29.32996
364.277	-44.42508
364.492	4.03918
364.707	-44.42508
364.922	-63.38577
365.138	-0.17561
365.353	54.62413
365.568	6.14661
365.783	-8.60492
365.998	8.25407
366.213	-23.35526
366.428	-63.38577
366.643	12.46906
366.858	33.54542
367.073	-0.17561
367.288	-10.71218
367.503	31.43768
367.718	41.97663
367.933	-8.60492
368.148	-12.81942
368.363	-65.49239
368.578	-4.39031
368.793	-8.60492
369.008	8.25407
369.223	-25.46235
369.438	16.68414
369.653	29.32996
369.868	4.03918
370.083	-38.10439
370.298	48.30027
370.513	-12.81942
370.728	-29.67646
370.943	23.00695
371.157	4.03918
371.372	20.89932
371.587	-8.60492
371.802	-21.24814
372.017	-17.03383
372.232	48.30027
372.446	37.76098
372.661	12.46906
372.876	-63.38577
373.091	12.46906
373.306	-69.70555
373.52	-38.10439
373.735	20.89932
373.95	25.11459
374.165	44.08449
374.379	-29.67646
374.594	67.27246
374.809	69.38059
375.023	4.03918
375.238	14.57659
375.453	6.14661
375.667	-31.78348
375.882	-38.10439
376.097	54.62413
376.311	-17.03383
376.526	29.32996
376.741	8.25407
376.955	-29.67646
377.17	18.79172
377.384	20.89932
377.599	33.54542
377.813	54.62413
378.028	-38.10439
378.242	105.22233
378.457	-6.49763
378.672	14.57659
378.886	65.16435
379.101	82.02988
379.315	-4.39031
379.53	6.14661
379.744	-84.4508
379.958	33.54542
380.173	33.54542
380.387	79.92161
380.602	-52.8523
380.816	-12.81942
381.031	-29.67646
381.245	-2.28298
381.459	23.00695
381.674	29.32996
381.888	-54.95905
382.103	44.08449
382.317	-27.56942
382.531	-52.8523
382.746	54.62413
382.96	46.19237
383.174	6.14661
383.388	-2.28298
383.603	14.57659
383.817	12.46906
384.031	37.76098
384.246	18.79172
384.46	-52.8523
384.674	1.93177
384.888	-46.53192
385.103	-8.60492
385.317	8.25407
385.531	-12.81942
385.745	12.46906
385.959	25.11459
386.174	33.54542
386.388	20.89932
386.602	-29.67646
386.816	-25.46235
387.03	50.4082
387.244	-4.39031
387.458	14.57659
387.672	29.32996
387.887	-14.92664
388.101	-10.71218
388.315	35.65319
388.529	25.11459
388.743	-35.99745
388.957	-21.24814
389.171	20.89932
389.385	20.89932
389.599	-8.60492
389.813	20.89932
390.027	16.68414
390.241	-29.67646
390.455	-17.03383
390.669	-42.31821
390.883	-17.03383
391.097	8.25407
391.311	-4.39031
391.525	77.81336
391.738	63.05626
391.952	-27.56942
392.166	4.03918
392.38	-6.49763
392.594	31.43768
392.808	79.92161
393.022	20.89932
393.236	10.36155
393.449	12.46906
393.663	29.32996
393.877	29.32996
394.091	37.76098
394.305	54.62413
394.518	14.57659
394.732	-8.60492
394.946	12.46906
395.16	33.54542
395.373	23.00695
395.587	41.97663
395.801	-29.67646
396.015	-52.8523
396.228	-19.141
396.442	14.57659
396.656	-8.60492
396.869	-33.89048
397.083	41.97663
397.297	16.68414
397.51	-17.03383
397.724	33.54542
397.938	25.11459
398.151	14.57659
398.365	23.00695
398.578	6.14661
398.792	-2.28298
399.005	-29.67646
399.219	-6.49763
399.433	94.67998
399.646	52.51615
399.86	33.54542
400.073	6.14661
400.287	37.76098
400.5	16.68414
400.714	-21.24814
400.927	-23.35526
401.141	14.57659
401.354	18.79172
401.567	-4.39031
401.781	37.76098
401.994	10.36155
402.208	-25.46235
402.421	23.00695
402.635	31.43768
402.848	4.03918
403.061	33.54542
403.275	65.16435
403.488	20.89932
403.701	4.03918
403.915	-4.39031
404.128	-12.81942
404.341	37.76098
404.555	16.68414
404.768	35.65319
404.981	4.03918
405.195	29.32996
405.408	12.46906
405.621	-21.24814
405.834	33.54542
406.048	12.46906
406.261	-63.38577
406.474	4.03918
406.687	4.03918
406.9	41.97663
407.114	39.86879
407.327	46.19237
407.54	39.86879
407.753	8.25407
407.966	8.25407
408.179	8.25407
408.392	27.22227
408.605	-46.53192
408.819	-12.81942
409.032	-8.60492
409.245	82.02988
409.458	54.62413
409.671	-12.81942
409.884	65.16435
410.097	-35.99745
410.31	4.03918
410.523	10.36155
410.736	31.43768
410.949	12.46906
411.162	23.00695
411.375	-0.17561
411.588	18.79172
411.801	12.46906
412.014	-10.71218
412.227	41.97663
412.44	39.86879
412.653	39.86879
412.865	-33.89048
413.078	-92.87609
413.291	18.79172
413.504	75.70514
413.717	126.30869
413.93	65.16435
414.143	-29.67646
414.356	48.30027
414.568	-23.35526
414.781	-33.89048
414.994	73.59693
415.207	-21.24814
415.42	-50.74553
415.632	-14.92664
415.845	39.86879
416.058	-33.89048
416.271	-38.10439
416.483	33.54542
416.696	23.00695
416.909	12.46906
417.121	-12.81942
417.334	-17.03383
417.547	25.11459
417.759	12.46906
417.972	50.4082
418.185	33.54542
418.397	73.59693
418.61	-0.17561
418.823	-23.35526
419.035	-12.81942
419.248	20.89932
419.46	44.08449
419.673	-25.46235
419.885	-8.60492
420.098	18.79172
420.311	18.79172
420.523	25.11459
420.736	-17.03383
420.948	-23.35526
421.161	-23.35526
421.373	8.25407
421.586	-42.31821
421.798	27.22227
422.01	12.46906
422.223	25.11459
422.435	29.32996
422.648	35.65319
422.86	4.03918
423.073	14.57659
423.285	-21.24814
423.497	39.86879
423.71	20.89932
423.922	-8.60492
424.134	20.89932
424.347	39.86879
424.559	71.48875
424.771	14.57659
424.984	12.46906
425.196	44.08449
425.408	-48.63874
425.621	71.48875
425.833	-29.67646
426.045	58.84015
426.257	-17.03383
426.47	-4.39031
426.682	44.08449
426.894	31.43768
427.106	-59.17246
427.318	-2.28298
427.531	88.35483
427.743	-6.49763
427.955	63.05626
428.167	37.76098
428.379	39.86879
428.591	8.25407
428.804	77.81336
429.016	33.54542
429.228	12.46906
429.44	-2.28298
429.652	-17.03383
429.864	-10.71218
430.076	1.93177
430.288	84.13817
430.5	12.46906
430.712	23.00695
430.924	23.00695
431.136	65.16435
431.348	-14.92664
431.56	31.43768
431.772	-0.17561
431.984	6.14661
432.196	41.97663
432.408	14.57659
432.62	16.68414
432.832	37.76098
433.044	-2.28298
433.256	-12.81942
433.468	52.51615
433.679	54.62413
433.891	-65.49239
434.103	69.38059
434.315	79.92161
434.527	-63.38577
434.739	73.59693
434.95	39.86879
435.162	29.32996
435.374	-17.03383
435.586	25.11459
435.798	4.03918
436.009	20.89932
436.221	-8.60492
436.433	33.54542
436.645	12.46906
436.856	-19.141
437.068	37.76098
437.28	18.79172
437.491	4.03918
437.703	-17.03383
437.915	16.68414
438.126	-40.21131
438.338	35.65319
438.55	6.14661
438.761	46.19237
438.973	16.68414
439.184	46.19237
439.396	67.27246
439.608	37.76098
439.819	31.43768
440.031	67.27246
440.242	8.25407
440.454	20.89932
440.665	-25.46235
440.877	20.89932
441.088	20.89932
441.3	37.76098
441.511	63.05626
441.723	-4.39031
441.934	-10.71218
442.146	-12.81942
442.357	4.03918
442.569	23.00695
442.78	88.35483
442.991	-4.39031
443.203	54.62413
443.414	39.86879
443.626	-8.60492
443.837	25.11459
444.048	115.76524
444.26	79.92161
444.471	20.89932
444.682	-4.39031
444.894	12.46906
445.105	52.51615
445.316	-33.89048
445.528	52.51615
445.739	-40.21131
445.95	20.89932
446.161	48.30027
446.373	67.27246
446.584	63.05626
446.795	31.43768
447.006	46.19237
447.217	33.54542
447.429	67.27246
447.64	23.00695
447.851	29.32996
448.062	-46.53192
448.273	-25.46235
448.484	63.05626
448.695	37.76098
448.907	41.97663
449.118	6.14661
449.329	25.11459
449.54	71.48875
449.751	6.14661
449.962	37.76098
450.173	20.89932
450.384	33.54542
450.595	25.11459
450.806	-10.71218
451.017	39.86879
451.228	20.89932
451.439	-4.39031
451.65	41.97663
451.861	23.00695
452.072	67.27246
452.283	33.54542
452.494	37.76098
452.705	-4.39031
452.915	8.25407
453.126	56.73213
453.337	35.65319
453.548	29.32996
453.759	107.33087
453.97	33.54542
454.181	-4.39031
454.391	60.94819
454.602	6.14661
454.813	20.89932
455.024	-0.17561
455.235	-0.17561
455.445	6.14661
455.656	48.30027
455.867	14.57659
456.078	20.89932
456.288	103.11382
456.499	56.73213
456.71	54.62413
456.921	-0.17561
457.131	46.19237
457.342	-10.71218
457.553	25.11459
457.763	20.89932
457.974	6.14661
458.184	67.27246
458.395	54.62413
458.606	29.32996
458.816	67.27246
459.027	90.46319
459.237	115.76524
459.448	98.89685
459.659	56.73213
459.869	29.32996
460.08	8.25407
460.29	75.70514
460.501	27.22227
460.711	63.05626
460.922	-63.38577
461.132	14.57659
461.343	18.79172
461.553	39.86879
461.764	113.65661
461.974	-12.81942
462.184	6.14661
462.395	-14.92664
462.605	88.35483
462.816	12.46906
463.026	75.70514
463.236	109.43943
463.447	29.32996
463.657	8.25407
463.867	82.02988
464.078	63.05626
464.288	119.98255
464.498	71.48875
464.709	25.11459
464.919	75.70514
465.129	41.97663
465.339	90.46319
465.55	71.48875
465.76	18.79172
465.97	63.05626
466.18	-27.56942
466.391	117.87389
466.601	107.33087
466.811	73.59693
467.021	1.93177
467.231	105.22233
467.441	54.62413
467.651	29.32996
467.862	41.97663
468.072	71.48875
468.282	71.48875
468.492	46.19237
468.702	109.43943
468.912	-21.24814
469.122	111.54801
469.332	-19.141
469.542	96.7884
469.752	4.03918
469.962	23.00695
470.172	73.59693
470.382	96.7884
470.592	126.30869
470.802	46.19237
471.012	39.86879
471.222	86.24649
471.432	172.70621
471.642	105.22233
471.852	71.48875
472.062	52.51615
472.272	82.02988
472.482	77.81336
472.691	92.57157
472.901	90.46319
473.111	96.7884
473.321	44.08449
473.531	86.24649
473.741	37.76098
473.95	111.54801
474.16	105.22233
474.37	109.43943
474.58	101.00532
474.79	58.84015
474.999	77.81336
475.209	44.08449
475.419	168.48784
475.628	56.73213
475.838	103.11382
476.048	113.65661
476.258	208.56572
476.467	200.12766
476.677	181.14322
476.886	193.79933
477.096	157.94226
477.306	181.14322
477.515	217.0041
477.725	151.61516
477.935	189.58055
478.144	160.05133
478.354	124.19996
478.563	193.79933
478.773	204.34665
478.982	172.70621
479.192	166.37868
479.401	206.45618
479.611	198.0182
479.82	200.12766
480.03	195.90876
480.239	164.26954
480.449	248.65082
480.658	200.12766
480.868	181.14322
481.077	267.64093
481.287	172.70621
481.496	290.85314
481.705	244.431
481.915	288.74285
482.124	311.95708
482.333	278.19166
482.543	223.33309
482.752	358.39204
482.961	316.17809
483.171	377.39057
483.38	318.28862
483.589	360.50292
483.799	383.72372
484.008	286.63257
484.217	343.61636
484.426	425.9485
484.636	495.63314
484.845	423.8371
485.054	430.17133
485.263	470.29135
485.472	489.29749
485.682	504.08088
485.891	430.17133
486.1	449.17485
486.309	451.28643
486.518	508.30483
486.727	546.32299
486.936	586.4581
487.146	480.85017
487.355	569.55852
487.564	455.50964
487.773	624.48519
487.982	561.10904
488.191	578.0082
488.4	611.80904
488.609	582.23313
488.818	641.38743
489.027	740.70313
489.236	679.42027
489.445	747.04326
489.654	692.09872
489.863	854.83888
490.072	679.42027
490.281	842.15579
490.49	763.95071
490.698	865.40836
490.907	738.58978
491.116	801.99481
491.325	844.26962
491.534	850.61115
491.743	812.56317
491.952	918.25884
492.16	850.61115
492.369	882.31996
492.578	759.72379
492.787	1045.11847
492.996	892.88998
493.204	1229.09956
493.413	1051.46204
493.622	1095.86844
493.831	928.82952
494.039	1072.60766
494.248	1078.95145
494.457	1072.60766
494.665	1114.90044
494.874	990.14304
495.083	1138.16228
495.291	1015.5158
495.5	1002.82931
495.709	1273.51298
495.917	1188.91714
496.126	1262.93825
496.335	1210.06564
496.543	1417.33374
496.752	1315.81245
496.96	1377.14793
497.169	1362.34271
497.377	1351.76759
497.586	1368.6878
497.794	1419.44879
498.003	1402.52841
498.211	1510.39593
498.42	1408.87355
498.628	1495.59062
498.837	1457.51971
499.045	1550.58156
499.254	1554.81161
499.462	1586.53675
499.671	1563.27168
499.879	1489.24548
500.087	1620.37648
500.296	1662.67537
500.504	1527.31624
500.713	1675.36484
500.921	1645.75593
501.129	1844.54603
501.338	1660.56045
501.546	1827.62908
501.754	1683.82443
501.962	1738.81057
502.171	1846.66063
502.379	1931.24037
502.587	1702.85834
502.795	1891.06604
503.004	1810.71184
503.212	1969.29835
503.42	1960.84119
503.628	2024.26744
503.837	1846.66063
504.045	1931.24037
504.253	1859.34812
504.461	1996.78344
504.669	1863.57724
504.877	1992.55503
505.085	2001.01182
505.294	2129.96413
505.502	1990.44082
505.71	2187.03238
505.918	2013.69681
506.126	2208.16724
506.334	2250.43437
506.542	2453.2636
506.75	2110.94009
506.958	2244.09452
507.166	2258.88736
507.374	2307.48924
507.582	2244.09452
507.79	2347.63481
507.998	2415.24025
508.206	2320.16717
508.414	2121.50908
508.622	2345.52198
508.83	2269.45341
509.037	2459.60048
509.245	2337.07053
509.453	2544.08269
509.661	2556.75344
509.869	2582.09366
510.077	2533.52341
510.285	2387.77681
510.492	2315.94123
510.7	2457.4882
510.908	2252.54763
511.116	2685.548
511.324	2565.20037
511.531	2594.76313
511.739	2537.74716
511.947	2679.21493
512.155	2636.99152
512.362	2841.72614
512.57	2575.75877
512.778	2763.64628
512.985	2860.71566
513.193	2738.31908
513.401	2651.77028
513.608	2708.76828
513.816	2685.548
514.024	2905.02007
514.231	2772.08824
514.439	2972.5192
514.646	2822.73548
514.854	2778.41958
515.061	2788.97153
515.269	2968.30095
515.477	2978.84646
515.684	2980.95552
515.892	2761.53575
516.099	3031.56837
516.307	2835.39605
516.514	3231.82206
516.722	3168.59977
516.929	3225.5005
517.136	3088.49722
517.344	3208.64228
517.551	3162.27673
517.759	3198.10535
517.966	3155.95354
518.173	3280.28233
518.381	3227.6077
518.588	3505.60755
518.796	3147.5224
519.003	3391.91723
519.21	3295.02933
519.418	3543.49259
519.625	3318.20151
519.832	3484.55774
520.039	3539.28344
520.247	3528.76023
520.454	3394.02308
520.661	3577.16318
520.868	3345.58412
521.076	3478.24245
521.283	3385.59957
521.49	3507.71243
521.697	3446.66354
521.904	3617.14081
522.112	3366.64567
522.319	3602.413
522.526	3619.24471
522.733	3730.72415
522.94	3627.66011
523.147	3758.05993
523.354	3560.32848
523.561	3770.67533
523.768	3636.07522
523.975	3964.02231
524.183	3532.96957
524.39	3930.40893
524.597	3705.48823
524.804	3873.67463
525.011	3779.08521
525.218	3936.71183
525.425	3940.91367
525.632	3896.79037
525.838	3779.08521
526.045	3823.23192
526.252	3837.94556
526.459	4111.01922
526.666	3896.79037
526.873	4090.02587
527.08	4094.2247
527.287	4295.66987
527.494	4220.15083
527.701	4459.19851
527.907	4064.8311
528.114	4478.05865
528.321	4106.82072
528.528	4350.19409
528.735	4184.47946
528.941	4251.62046
529.148	4083.72745
529.355	4534.62836
529.562	4043.83317
529.768	4312.44811
529.975	4289.37768
530.182	4612.12357
530.388	4358.58114
530.595	4580.71027
530.802	4461.29417
531.008	4697.9609
531.215	4459.19851
531.422	4545.10247
531.628	4522.05871
531.835	4729.35535
532.042	4697.9609
532.248	4806.77323
532.455	4450.81565
532.661	4685.40169
532.868	4492.72642
533.074	4752.37472
533.281	4668.65483
533.487	4953.15416
533.694	4591.18192
533.9	4986.59688
534.107	4589.08764
534.313	5003.31602
534.52	4725.16972
534.726	4861.15637
534.933	5078.53389
535.139	5088.97845
535.345	5124.48559
535.552	5139.10423
535.758	4913.43329
535.965	5214.26779
536.171	4909.25166
536.377	5078.53389
536.584	4873.70414
536.79	5333.21488
536.996	5082.71178
537.203	5258.09924
537.409	5205.91777
537.615	5097.33367
537.821	4871.6129
538.028	5228.87941
538.234	5222.61743
538.44	5293.57429
538.646	5103.59985
538.853	5435.4068
539.059	5124.48559
539.265	5253.92526
539.471	5299.8339
539.677	5416.64108
539.883	5395.78805
540.09	5362.41832
540.296	5345.73121
540.502	5554.2121
540.708	5402.04421
540.914	5785.35001
541.12	5500.0297
541.326	5747.88794
541.532	5647.95169
541.738	5829.0461
541.944	5670.85855
542.15	5620.87627
542.356	5743.72501
542.562	5903.92947
542.768	5431.23681
542.974	5928.88379
543.18	5903.92947
543.386	5945.51812
543.592	6072.30531
543.798	5945.51812
544.004	5914.32751
544.21	5901.84978
544.415	5754.13215
544.621	5837.36798
544.827	5704.17252
545.033	6118.01034
545.239	6005.80493
545.445	6016.1972
545.651	5808.23974
545.856	6319.39249
546.062	6074.38305
546.268	6221.84312
546.474	5949.67647
546.679	6147.08943
546.885	6020.35395
547.091	6277.88844
547.297	5945.51812
547.502	5993.33342
547.708	6028.66715
547.914	6207.31006
548.119	6248.83003
548.325	6418.96411
548.531	6047.37049
548.736	6298.64163
548.942	6199.00494
549.147	6385.77954
549.353	6277.88844
549.559	6306.94226
549.764	6130.47337
549.97	6416.89025
550.175	6288.26533
550.381	6562.00442
550.586	6489.46155
550.792	6591.01363
550.997	6489.46155
551.203	6559.93216
551.408	6731.85125
551.614	6632.4475
551.819	6427.25932
552.025	6667.65905
552.23	6634.51896
552.435	6593.08554
552.641	6593.08554
552.846	6853.96274
553.052	6769.11403
553.257	7066.95115
553.462	6853.96274
553.668	6858.10072
553.873	6779.46349
554.078	6804.29985
554.283	6936.70514
554.489	6969.79195
554.694	6932.56888
554.899	6893.2699
555.105	6841.54825
555.31	7023.54573
555.515	7015.27691
555.72	7000.8056
555.925	6858.10072
556.131	7267.31524
556.336	6773.25388
556.541	7093.81622
556.746	6936.70514
556.951	7131.00778
557.156	7038.0153
557.361	7172.32327
557.567	7027.68
557.772	7199.17357
557.977	7027.68
558.182	7318.92175
558.387	7250.79826
558.592	7405.58988
558.797	7263.18613
559.002	7432.40794
559.207	7347.81541
559.412	7584.99506
559.617	7226.02013
559.822	7453.03472
560.027	7215.69497
560.232	7440.65891
560.437	7279.70206
560.642	7650.94235
560.847	7620.03227
561.051	7453.03472
561.256	7508.71623
561.461	7554.07475
561.666	7545.82852
561.871	7692.14837
562.076	7685.96801
562.281	7576.75011
562.485	7514.9021
562.69	7467.47218
562.895	7494.28179
563.1	7718.92775
563.305	7461.28482
563.509	7924.80484
563.714	7576.75011
563.919	7626.21467
564.123	7593.23966
564.328	7667.42577
564.533	7570.56618
564.737	7587.05624
564.942	7776.59434
565.147	7959.78336
565.351	7768.35727
565.556	7867.18019
565.761	7935.09325
565.965	7885.70416
566.17	7955.66854
566.374	7986.52765
566.579	7671.54642
566.784	7926.86256
566.988	8118.14179
567.193	7891.87845
567.397	7879.52969
567.602	7980.35619
567.806	7774.53511
568.011	8159.25429
568.215	7996.81299
568.42	8074.96503
568.624	7963.89809
568.828	8194.19364
569.033	7778.65356
569.237	8019.43896
569.442	8101.69454
569.646	8118.14179
569.85	8050.2886
570.055	8401.65703
570.259	8225.01771
570.463	8323.62491
570.668	8303.08547
570.872	8329.78636
571.076	8465.29416
571.281	8450.9261
571.485	8198.30377
571.689	8455.03135
571.893	8381.12498
572.098	8467.34666
572.302	8385.23154
572.506	8426.29295
572.71	8243.51001
572.914	8559.68964
573.119	8662.2482
573.323	8535.0686
573.527	8541.22412
573.731	8678.65324
573.935	8448.87344
574.139	8731.96148
574.343	8233.2367
574.547	8418.08128
574.751	8504.28847
574.955	8617.12819
575.159	8455.03135
575.364	8686.85532
575.568	8672.50149
575.772	8666.34957
575.976	8645.84197
576.18	8526.86098
576.383	8633.53651
576.587	8637.6384
576.791	8578.15364
576.995	8926.63688
577.199	8910.24942
577.403	8842.63905
577.607	8680.70379
577.811	9186.63757
578.015	8875.42227
578.219	9057.69587
578.422	8887.7148
578.626	9188.68371
578.83	8844.68814
579.034	9100.68402
579.238	8871.32462
579.442	8852.8843
579.645	8736.06159
579.849	9033.12778
580.053	8963.50451
580.257	9227.55727
580.46	9219.37387
580.664	9162.08249
580.868	8910.24942
581.071	9425.92317
581.275	9182.54522
581.479	9207.09827
581.682	9100.68402
581.886	9342.09676
582.09	9288.92421
582.293	9507.67875
582.497	9466.80418
582.7	9642.51981
582.904	9370.72351
583.107	9188.68371
583.311	9399.34704
583.515	9481.11101
583.718	9196.86813
583.922	9260.28818
584.125	9362.54477
584.329	9573.06481
584.532	9587.36585
584.735	9656.81714
584.939	9481.11101
585.142	9611.88013
585.346	9295.06008
585.549	9626.17908
585.753	9474.97961
585.956	9544.46041
586.159	9709.91485
586.363	9822.20297
586.566	9611.88013
586.769	9820.16177
586.973	9521.98334
587.176	9575.10786
587.379	9648.64733
587.582	9634.34957
587.786	9916.08188
587.989	9805.87299
588.192	9763.00221
588.395	9997.69049
588.599	9640.47728
588.802	9852.8191
589.005	9713.99886
589.208	9901.79797
589.411	10014.00944
589.615	9928.32465
589.818	9752.7939
590.021	9993.61061
590.224	9805.87299
590.427	10007.88994
590.63	9995.65056
590.833	10020.12881
591.036	9997.69049
591.239	10038.48615
591.442	9942.60723
591.645	9867.10548
591.848	10472.61686
592.051	10166.95544
592.254	10075.19736
592.457	10356.50074
592.66	10152.68381
592.863	10226.07355
593.066	10189.38091
593.269	10219.95842
593.472	10115.98222
593.675	10488.91049
593.878	10289.25609
594.081	10409.47124
594.284	10380.94977
594.486	10529.64101
594.689	10330.01216
594.892	10162.8779
595.095	10305.55916
595.298	10535.75015
595.5	10419.65686
595.703	10584.61919
595.906	10431.87917
596.109	10725.07803
596.311	10625.33791
596.514	10775.95469
596.717	10495.02039
596.92	10696.58383
597.122	10621.26626
597.325	10798.33808
597.528	10574.43873
597.73	10928.54072
597.933	10647.7311
598.136	10900.06292
598.338	10600.90727
598.541	10942.77878
598.743	10918.37033
598.946	10780.02451
599.148	11066.83017
599.351	10745.42959
599.554	10938.71082
599.756	11018.02798
599.959	10847.16962
600.161	10670.1228
600.363	10631.44529
600.566	11044.46328
600.768	10936.67682
600.971	10928.54072
601.173	10942.77878
601.376	11294.49222
601.578	11288.39583
601.78	11093.26206
601.983	10688.44219
602.185	11257.91251
602.388	11036.32954
602.59	11111.55999
602.792	11038.363
602.995	11015.99442
603.197	10973.28706
603.399	11264.00936
603.601	10957.01629
603.804	11164.41581
604.006	11286.36368
604.208	11426.5585
604.41	11121.72513
604.613	11251.81557
604.815	10942.77878
605.017	11363.57829
605.219	11166.44858
605.421	11111.55999
605.623	11243.68617
605.826	11066.83017
606.028	11068.86346
606.23	11379.83215
606.432	11365.61005
606.634	11552.49106
606.836	11314.81286
607.038	11635.74924
607.24	11314.81286
607.442	11438.74714
607.644	11440.77854
607.846	11491.56053
608.048	11408.2749
608.25	11379.83215
608.452	11270.10612
608.654	11467.18592
608.856	11259.9448
609.058	11306.68473
609.26	11461.09206
609.462	11245.71854
609.664	11243.68617
609.866	11635.74924
610.067	11318.87687
610.269	11507.8095
610.471	11465.15465
610.673	11473.27971
610.875	11481.40461
611.077	11526.08887
611.278	11282.29935
611.48	11564.67616
611.682	11487.49819
611.884	11684.47863
612.085	11550.46018
612.287	11645.90162
612.489	11318.87687
612.69	11749.44317
612.892	11552.49106
613.094	11712.90173
613.295	11398.11699
613.497	11489.52937
613.699	11373.73703
613.9	11680.41804
614.102	11337.1644
614.304	11684.47863
614.505	11570.76858
614.707	11895.58106
614.908	11647.93207
615.11	11871.22779
615.311	11834.69561
615.513	11761.62302
615.714	11542.33656
615.916	11800.19049
616.117	11682.44834
616.319	11806.27981
616.52	11668.23607
616.722	12057.90635
616.923	11899.63983
617.124	11960.51735
617.326	11554.52194
617.527	11816.4285
617.729	11751.47317
617.93	11773.80256
618.131	11538.2747
618.333	11678.38774
618.534	11785.98179
618.735	11745.38315
618.937	11737.263
619.138	11716.96203
619.339	11735.23295
619.54	12017.32982
619.742	11779.89221
619.943	12086.30808
620.144	11980.80823
620.345	12088.33672
620.546	11532.18183
620.748	11980.80823
620.949	11997.04037
621.15	12029.50311
621.351	11972.69197
621.552	12153.24908
621.753	12070.07871
621.954	12137.02172
622.155	11928.05025
622.356	12013.27199
622.558	11745.38315
622.759	11923.99172
622.96	11932.10875
623.161	12031.53196
623.362	11897.61045
623.563	11956.45907
623.764	11988.92436
623.965	12033.56081
624.166	11968.6338
624.366	11915.87455
624.567	11733.20288
624.768	12011.24306
624.969	11887.46344
625.17	12185.70238
625.371	11940.22565
625.572	12333.74695
625.773	11982.83728
625.973	12262.77144
626.174	12216.12563
626.375	12323.60812
626.576	12057.90635
626.777	12248.57529
626.977	11792.07128
627.178	12072.10741
627.379	11952.40077
627.58	12451.34494
627.78	12027.47424
627.981	12163.39094
628.182	12191.78716
628.382	12114.7083
628.583	12086.30808
628.784	12124.85088
628.984	12045.73372
629.185	12410.79648
629.386	12193.81541
629.586	12145.13546
629.787	12354.0241
629.987	12268.85539
630.188	12153.24908
630.388	12307.38563
630.589	11859.0507
630.79	12199.9001
630.99	12021.38761
631.191	12260.74344
631.391	12475.67276
631.591	12205.98473
631.792	12260.74344
631.992	12639.86145
632.193	12147.16388
632.393	12070.07871
632.594	12208.01292
632.794	12311.44129
632.994	12461.48165
633.195	12461.48165
633.395	12356.05178
633.595	12370.24532
633.796	12165.41929
633.996	12629.72752
634.196	12370.24532
634.397	12540.54236
634.597	12518.24417
634.797	12692.55543
634.997	12254.6594
635.198	12412.82396
635.398	12159.33422
635.598	12548.6506
635.798	12562.83978
635.998	12731.06006
636.199	12392.54879
636.399	12820.2207
636.599	12451.34494
636.799	12589.1903
636.999	12568.92076
637.199	12897.21445
637.399	12785.77357
637.599	12773.61537
637.799	12412.82396
637.999	12816.16818
638.199	12828.32568
638.399	13079.53801
638.599	13045.10222
638.799	13156.50713
638.999	12773.61537
639.199	12878.97979
639.399	12842.50917
639.599	12862.77085
639.799	12303.32993
639.999	12765.50979
640.199	12937.73437
640.399	12816.16818
640.599	12424.98874
640.799	13160.55795
640.998	12801.98419
641.198	12700.66185
641.398	12749.29836
641.598	12913.42267
641.798	12647.96848
641.997	13030.92237
642.197	12743.21897
642.397	12966.09708
642.597	12960.01944
642.796	13346.8765
642.996	12735.11305
643.196	13004.58771
643.395	12970.14881
643.595	13081.5636
643.795	12769.56259
643.994	13057.25619
644.194	12978.25221
644.394	13359.02646
644.593	12901.26654
644.793	12962.04532
644.992	12911.39666
645.192	12885.05806
645.392	12939.76031
645.591	13197.0145
645.791	13401.55018
645.99	13440.02251
646.19	13462.29533
646.389	13478.49346
646.589	13361.05144
646.788	13140.30367
646.987	13010.66502
647.187	13245.62099
647.386	12856.6924
647.586	13229.41911
647.785	13273.9736
647.984	13136.25275
648.184	13148.40543
648.383	13267.89811
648.582	12836.43057
648.782	13367.12635
648.981	13148.40543
649.18	13000.53615
649.38	13294.22495
649.579	13207.14107
649.778	13251.69662
649.977	13444.07215
650.177	13340.80147
650.376	13302.32538
650.575	13296.25007
650.774	13211.19166
650.973	13377.25113
651.173	13375.22618
651.372	13255.74702
651.571	13506.8396
651.77	13359.02646
651.969	13442.04733
652.168	13014.71653
652.367	13338.77645
652.566	13518.98772
652.765	13431.92319
652.964	13555.43131
653.163	13662.73086
653.362	13363.07642
653.561	13371.17628
653.76	13154.48171
653.959	13472.41919
654.158	13569.60351
654.357	13498.74078
654.556	13419.77409
654.755	13577.70183
654.954	13178.78641
655.153	13541.25895
655.352	13610.09455
655.551	13482.54295
655.749	13405.59996
655.948	13563.52973
656.147	13417.74923
656.346	13666.77972
656.545	13278.02391
656.743	13496.71606
656.942	13496.71606
657.141	13899.56805
657.34	13553.4067
657.538	13521.0124
657.737	13433.94803
657.936	13676.90179
658.135	13555.43131
658.333	13776.09395
658.532	13480.51821
658.731	13822.65101
658.929	13361.05144
659.128	13545.30821
659.326	13632.36404
659.525	13820.62682
659.724	13371.17628
659.922	13525.06174
660.121	13604.02098
660.319	13701.19445
660.518	13488.61716
660.716	13391.42564
660.915	13496.71606
661.113	13709.2919
661.312	13597.94738
661.51	14023.03208
661.709	13610.09455
661.907	13719.41364
662.105	13612.11906
662.304	13757.87554
662.502	13931.95298
662.701	13751.80268
662.899	13838.84441
663.097	13994.6969
663.296	13614.14358
663.494	13964.33725
663.692	13719.41364
663.891	13907.66435
664.089	13474.44395
664.287	13743.7055
664.485	13794.31212
664.684	14023.03208
664.882	13367.12635
665.08	13622.24159
665.278	13905.64028
665.476	14156.60603
665.675	13901.59213
665.873	14164.70112
666.071	14124.22536
666.269	14053.39067
666.467	13786.21518
666.665	14180.89118
666.863	13948.1452
667.061	14008.86455
667.259	13887.42352
667.457	13796.33634
667.655	13601.99645
667.853	13743.7055
668.051	13828.72356
668.249	13863.13417
668.447	13988.62502
668.645	13848.96519
668.843	14095.89181
669.041	13966.36124
669.239	13723.46231
669.437	13796.33634
669.635	14182.91493
669.833	14008.86455
670.031	13944.09716
670.229	13921.83277
670.426	13498.74078
670.624	13705.24318
670.822	13735.60826
671.02	13903.6162
671.218	13873.25478
671.415	13891.47171
671.613	13634.38851
671.811	13642.48639
672.009	13731.55962
672.206	13745.7298
672.404	13804.43322
672.602	13713.34061
672.799	13763.94837
672.997	13618.19259
673.195	13512.91368
673.392	13672.85297
673.59	13460.27055
673.788	13468.36966
673.985	13721.43798
674.183	13834.79608
674.38	13812.53004
674.578	13867.18242
674.775	13521.0124
674.973	13670.82856
675.17	13816.57844
675.368	13788.23942
675.565	13735.60826
675.763	13593.8983
675.96	13772.04544
676.158	13751.80268
676.355	13498.74078
676.553	14014.93636
676.75	13707.26754
676.947	13956.24124
677.145	13577.70183
677.342	13757.87554
677.539	13626.29058
677.737	13695.12133
677.934	13763.94837
678.131	13806.45743
678.329	13531.13572
678.526	13521.0124
678.723	13723.46231
678.92	13595.92284
679.118	13591.87375
679.315	13516.96305
679.512	13644.51086
679.709	13636.41299
679.906	13413.69949
680.104	13691.07257
680.301	13650.58422
680.498	13666.77972
680.695	13551.38208
680.892	13658.68199
681.089	13670.82856
681.286	13974.4572
681.483	13361.05144
681.68	13992.67294
681.877	13956.24124
682.075	13668.80414
682.272	13478.49346
682.469	13893.4958
682.665	13541.25895
682.862	13601.99645
683.059	13476.4687
683.256	13666.77972
683.453	13502.7902
683.65	13608.07003
683.847	13721.43798
684.044	13338.77645
684.241	13369.15132
684.438	13776.09395
684.635	13446.09696
684.831	13593.8983
685.028	13363.07642
685.225	13514.93836
685.422	13205.11576
685.619	13701.19445
685.815	13261.82258
686.012	13450.14658
686.209	13176.76104
686.405	13255.74702
686.602	13464.32011
686.799	13318.52602
686.996	13521.0124
687.192	13073.46121
687.389	13205.11576
687.586	13377.25113
687.782	13271.94844
687.979	13197.0145
688.175	12856.6924
688.372	13383.32594
688.568	13057.25619
688.765	13314.47588
688.962	13278.02391
689.158	13180.81177
689.355	13314.47588
689.551	13421.79895
689.748	13504.8149
689.944	13486.59243
690.14	13275.99876
690.337	13494.69134
690.533	13350.9265
690.73	13140.30367
690.926	13158.53254
691.123	13201.06514
691.319	13113.9724
691.515	13415.72436
691.712	13172.7103
691.908	13330.67632
692.104	12937.73437
692.301	13087.64034
692.497	12901.26654
692.693	13113.9724
692.889	13063.33311
693.086	13172.7103
693.282	13107.89584
693.478	13091.69148
693.674	13166.63414
693.87	13150.43087
694.067	12994.45878
694.263	13097.76815
694.459	13014.71653
694.655	13176.76104
694.851	13140.30367
695.047	12962.04532
695.243	13091.69148
695.439	13045.10222
695.635	12980.27805
695.831	13186.88783
696.027	13369.15132
696.224	13391.42564
696.42	12905.3186
696.615	13077.51241
696.811	12872.90148
697.007	13201.06514
697.203	12986.35553
697.399	13099.7937
697.595	13055.23054
697.791	12980.27805
697.987	12601.35172
698.183	13126.12539
698.379	12909.37065
698.575	13156.50713
698.77	12937.73437
698.966	13174.73567
699.162	12891.13628
699.358	13041.05086
699.554	13089.66591
699.749	13130.17635
699.945	13144.35456
700.141	12953.94175
700.337	12785.77357
700.532	12897.21445
700.728	12816.16818
700.924	12858.71856
701.119	12337.80244
701.315	12814.14191
701.511	12447.29022
701.706	12858.71856
701.902	12739.16602
702.097	12980.27805
702.293	12915.44867
702.489	13124.09991
702.684	12921.52665
702.88	12854.66624
703.075	12437.15328
703.271	13004.58771
703.466	12769.56259
703.662	12793.87892
703.857	12881.00589
704.053	12878.97979
704.248	12690.52882
704.443	12931.65652
704.639	12572.97472
704.834	13081.5636
705.03	13122.07441
705.225	13030.92237
705.42	12676.34233
705.616	12911.39666
705.811	12688.50219
706.006	12935.70842
706.202	12712.82129
706.397	12710.79473
706.592	12852.64008
706.787	12619.59345
706.983	12445.26284
707.178	12688.50219
707.373	12672.28899
707.568	12785.77357
707.763	12398.63141
707.959	12737.13954
708.154	12986.35553
708.349	12905.3186
708.544	12929.63055
708.739	12662.15555
708.934	12451.34494
709.129	12493.918
709.324	12384.43854
709.519	12731.06006
709.714	12447.29022
709.909	12864.79698
710.104	12394.57634
710.299	12581.08256
710.494	12599.32484
710.689	12968.12294
710.884	12686.47556
711.079	12467.56359
711.274	12572.97472
711.469	12783.74721
711.664	12718.90093
711.859	12996.48457
712.054	12554.73172
712.249	12495.94521
712.443	12435.12588
712.638	12491.89077
712.833	12508.10838
713.028	12765.50979
713.223	12518.24417
713.417	12666.20894
713.612	12307.38563
713.807	12844.53537
714.002	12654.04869
714.196	12704.71502
714.391	12400.65894
714.586	12435.12588
714.78	12366.19006
714.975	12688.50219
715.17	12358.07945
715.364	12652.02196
715.559	12410.79648
715.754	12443.23546
715.948	12068.05
716.143	12354.0241
716.337	12341.8579
716.532	12852.64008
716.726	12493.918
716.921	12402.68646
717.115	12128.90785
717.31	12443.23546
717.504	12293.19057
717.699	12489.86355
717.893	12208.01292
718.088	12311.44129
718.282	12394.57634
718.476	12218.15379
718.671	12057.90635
718.865	12175.56093
719.059	12074.1361
719.254	12264.79943
719.448	12305.35778
719.642	12185.70238
719.837	11844.84371
720.031	12386.46611
720.225	11779.89221
720.419	12161.36258
720.614	12258.71543
720.808	12189.75891
721.002	12086.30808
721.196	12161.36258
721.39	11944.28406
721.585	12055.8776
721.779	11944.28406
721.973	12347.94103
722.167	11798.1607
722.361	12029.50311
722.555	12061.96384
722.749	12009.21413
722.943	12132.9648
723.137	12072.10741
723.331	11777.86234
723.525	12128.90785
723.719	11907.75725
723.913	12122.82238
724.107	11572.79937
724.301	12104.56554
724.495	11704.78102
724.689	11676.35742
724.883	11373.73703
725.077	11810.33931
725.271	11601.22943
725.465	11788.01163
725.659	11507.8095
725.853	11783.95194
726.046	12096.45119
726.24	11806.27981
726.434	11507.8095
726.628	11818.45822
726.822	11785.98179
727.015	11767.71283
727.209	11519.99584
727.403	11800.19049
727.596	11727.11263
727.79	11822.51762
727.984	11871.22779
728.177	11934.13799
728.371	11790.04146
728.565	11570.76858
728.758	11865.13928
728.952	11911.81592
729.146	11828.60665
729.339	12053.84884
729.533	11783.95194
729.726	11992.98238
729.92	11798.1607
730.113	11911.81592
730.307	11879.34568
730.5	12025.44537
730.694	11680.41804
730.887	11633.71874
731.081	11785.98179
731.274	12118.76535
731.468	12027.47424
731.661	12106.59411
731.854	11869.19829
732.048	12027.47424
732.241	11428.58997
732.435	11897.61045
732.628	11544.36748
732.821	11725.08252
733.014	11714.93188
733.208	11794.1011
733.401	11698.6904
733.594	11457.02943
733.788	11698.6904
733.981	11834.69561
734.174	11964.57559
734.367	11765.6829
734.56	11785.98179
734.754	11686.50891
734.947	11796.13091
735.14	11723.05241
735.333	11651.99295
735.526	11883.40457
735.719	11761.62302
735.912	11895.58106
736.105	11550.46018
736.298	11664.17535
736.491	11440.77854
736.684	11668.23607
736.877	11457.02943
737.07	11700.72061
737.263	11308.71678
737.456	11572.79937
737.649	11392.02214
737.842	11369.67356
738.035	11394.05377
738.228	11365.61005
738.421	11643.87117
738.614	11668.23607
738.807	11700.72061
739	11485.46701
739.192	11201.00411
739.385	11668.23607
739.578	11595.13743
739.771	11377.80045
739.964	11495.62283
740.156	11501.71621
740.349	11485.46701
740.542	11274.17057
740.735	11180.6777
740.927	11331.06864
741.12	11237.58901
741.313	11221.32947
741.505	11276.20278
741.698	11154.25179
741.891	11373.73703
742.083	11761.62302
742.276	11794.1011
742.468	11660.11458
742.661	11556.5528
742.854	11489.52937
743.046	11714.93188
743.239	11394.05377
743.431	11566.70697
743.624	11631.68822
743.816	11444.84132
744.009	11324.9728
744.201	11188.80839
744.393	11160.35023
744.586	11261.97709
744.778	11286.36368
744.971	11355.45112
745.163	11473.27971
745.355	11385.92719
745.548	11190.84103
745.74	11282.29935
745.932	11217.26448
746.125	11278.23498
746.317	11369.67356
746.509	11186.77573
746.702	11079.02973
746.894	11253.84789
747.086	11239.62141
747.278	11408.2749
747.471	11178.645
747.663	11225.39442
747.855	11302.6206
748.047	11015.99442
748.239	10999.72553
748.431	11083.09617
748.623	11213.19945
748.815	11198.97151
749.008	11280.26717
749.2	11050.56348
749.392	11209.13438
749.584	11095.29521
749.776	11519.99584
749.968	10961.08405
750.16	11469.21719
750.352	11032.26261
750.544	10851.23861
750.736	11089.19573
750.928	11044.46328
751.12	10885.82318
751.311	11290.42797
751.503	11123.75813
751.695	11091.2289
751.887	11034.29608
752.079	11410.30645
752.271	11304.65267
752.463	11331.06864
752.654	11121.72513
752.846	10940.74481
753.038	10806.47714
753.23	11050.56348
753.421	10818.68537
753.613	10881.75458
753.805	10792.23366
753.997	11026.16212
754.188	11032.26261
754.38	11032.26261
754.572	10928.54072
754.763	10908.19966
754.955	10928.54072
755.146	11131.89001
755.338	10873.61724
755.53	10920.40443
755.721	10568.33031
755.913	10661.98053
756.104	10723.04281
756.296	11201.00411
756.487	10619.23042
756.679	10761.70998
756.87	10311.67259
757.062	10541.85917
757.253	10529.64101
757.445	10672.15834
757.636	10826.82396
757.827	10755.60492
758.019	10702.68993
758.21	10651.80242
758.401	10513.34941
758.593	10643.65972
758.784	10753.56988
758.975	10881.75458
759.167	10723.04281
759.358	10936.67682
759.549	10639.58829
759.74	10782.05939
759.932	10566.29415
760.123	10488.91049
760.314	10264.79987
760.505	10354.46324
760.696	10173.07164
760.888	10440.02712
761.079	10181.22639
761.27	10305.55916
761.461	10158.80031
761.652	10360.57571
761.843	10232.18856
762.034	10499.0936
762.225	10283.14222
762.416	10716.93707
762.607	10136.37255
762.798	10299.44561
762.989	10213.84316
763.18	10460.39609
763.371	10103.74735
763.562	9987.49068
763.753	10032.36716
763.944	9989.53067
764.135	10148.60608
764.326	10213.84316
764.517	10146.5672
764.708	10207.72778
764.899	10205.6893
765.089	10268.87604
765.28	10024.20832
765.471	10468.54332
765.662	9875.26881
765.853	10171.03292
766.043	9852.8191
766.234	10164.91668
766.425	9965.04983
766.615	9840.57305
766.806	9820.16177
766.997	9756.87727
767.187	9644.56234
767.378	9763.00221
767.569	9544.46041
767.759	9830.3676
767.95	9975.25044
768.141	10203.6508
768.331	9811.99684
768.522	9850.77813
768.712	9703.78872
768.903	9926.28423
769.093	9746.66874
769.284	10128.21659
769.474	9769.12702
769.665	9763.00221
769.855	9687.4517
770.046	9981.37063
770.236	9807.91429
770.426	9869.14634
770.617	9793.62487
770.807	9662.94433
770.998	9783.4177
771.188	9683.3673
771.378	9591.45172
771.569	9636.39216
771.759	9499.50435
771.949	9413.65761
772.139	9423.87895
772.33	9174.36033
772.52	9415.70191
772.71	9521.98334
772.9	9237.78615
773.09	9485.19853
773.281	9352.32097
773.471	9391.16922
773.661	9237.78615
773.851	9262.33372
774.041	9276.65203
774.231	9264.37925
774.421	9524.02679
774.611	9221.41975
774.802	9147.75756
774.992	9288.92421
775.182	9268.47024
775.372	9413.65761
775.562	9057.69587
775.752	9200.96023
775.942	8889.76349
776.131	9174.36033
776.321	8893.86082
776.511	8945.07141
776.701	9061.79031
776.891	9123.19859
777.081	9104.77773
777.271	8838.54083
777.461	8828.29494
777.651	8996.27093
777.84	8932.78188
778.03	9059.7431
778.22	8943.0232
778.41	9088.40247
778.599	8783.20769
778.789	8854.9333
778.979	8772.95936
779.169	9123.19859
779.358	8934.83018
779.548	8891.81216
779.738	8725.81116
779.927	8707.35922
780.117	8703.25859
780.307	8932.78188
780.496	8695.0571
780.686	8654.04523
780.875	8664.29889
781.065	8850.83529
781.254	8867.2269
781.444	8940.97497
781.633	8844.68814
781.823	8879.51985
782.012	8797.55459
782.202	8662.2482
782.391	8592.51347
782.581	8567.89605
782.77	8551.48293
782.96	8617.12819
783.149	8268.16393
783.338	8465.29416
783.528	8448.87344
783.717	8448.87344
783.906	8670.45087
784.096	8660.19748
784.285	8574.05066
784.474	8403.71013
784.663	8272.27264
784.853	8366.75139
785.042	8325.67875
785.231	8424.24006
785.42	8317.46328
785.61	8377.01833
785.799	8391.39124
785.988	8446.82076
786.177	8042.06247
786.366	8424.24006
786.555	8413.97534
786.744	8762.71057
786.933	8259.94627
787.122	8598.6674
787.312	8510.44484
787.501	8506.34061
787.69	8305.1395
787.879	8549.4312
788.068	8171.58648
788.257	8136.6434
788.445	8000.92699
788.634	8241.45539
788.823	8109.91833
789.012	8148.97691
789.201	7893.9365
789.39	7976.24179
789.579	7725.1071
789.768	7840.42038
789.957	7869.23849
790.145	8025.60925
790.334	7809.53931
790.523	7947.43867
790.712	7630.33616
790.9	8037.94929
791.089	7729.22656
791.278	7922.74709
791.467	7739.52485
791.655	7996.81299
791.844	7819.83352
792.033	7720.98755
792.221	7486.03307
792.41	7856.88837
792.599	7576.75011
792.787	8025.60925
792.976	7972.1273
793.164	7727.16684
793.353	7733.34594
793.541	7965.95542
793.73	7611.78878
793.918	7930.97795
794.107	7605.60593
794.295	7883.64602
794.484	7786.89022
794.672	7675.66698
794.861	7607.6669
795.049	7764.2386
795.238	7624.15389
795.426	7778.65356
795.614	7455.09728
795.803	7667.42577
795.991	7463.3473
796.179	7708.62841
796.368	7597.36184
796.556	7589.1174
796.744	7337.49674
796.932	7358.13353
797.121	7296.21658
797.309	7395.27426
797.497	7145.46921
797.685	7516.96401
797.874	7436.53347
798.062	7568.50483
798.25	7420.03082
798.438	7405.58988
798.626	7671.54642
798.814	7488.09528
799.002	7442.7216
799.19	7506.65423
799.378	7190.91234
799.566	7335.43294
799.755	7147.53504
799.943	7387.02137
800.131	7302.40916
800.318	7073.15111
800.506	7116.54525
800.694	7139.27159
800.882	7110.34669
801.07	7358.13353
801.258	7296.21658
801.446	7417.9679
801.634	7040.08229
801.822	7147.53504
802.01	7151.66663
802.197	7325.11361
802.385	7079.35088
802.573	7184.71618
802.761	6940.8413
802.949	7168.19212
803.136	7139.27159
803.324	7182.65075
803.512	7058.68421
803.699	7073.15111
803.887	7050.41691
804.075	7104.14793
804.262	6984.26562
804.45	7407.65293
804.638	6942.90935
804.825	7413.84198
805.013	7141.33748
805.201	7213.62988
805.388	7226.02013
805.576	7298.2808
805.763	7035.94828
805.951	7149.60085
806.138	6973.9274
806.326	7238.40959
806.513	7172.32327
806.701	7197.1083
806.888	6961.52079
807.075	7459.22233
807.263	7195.043
807.45	7290.0238
807.638	7038.0153
807.825	6998.73818
808.012	7046.28313
808.2	7221.89013
808.387	7166.12651
808.574	7333.36911
808.761	7389.08463
808.949	7589.1174
809.136	7459.22233
809.323	7492.21964
809.51	7444.78426
809.698	7347.81541
809.885	7354.00635
810.072	7448.90953
810.259	7236.34474
810.446	7242.53924
810.633	7077.28431
810.82	7217.76005
811.008	7064.88444
811.195	7217.76005
811.382	7143.40336
811.569	7504.59221
811.756	7265.2507
811.943	7417.9679
812.13	7217.76005
812.317	7448.90953
812.504	7232.21496
812.691	7455.09728
812.878	7333.36911
813.064	7271.44427
813.251	7444.78426
813.438	7688.02815
813.625	7356.06995
813.812	7347.81541
813.999	7426.21948
814.186	7395.27426
814.372	7397.33743
814.559	7442.7216
814.746	7261.12154
814.933	7263.18613
815.12	7409.71597
815.306	7535.52025
815.493	7387.02137
815.68	7492.21964
815.866	7151.66663
816.053	7298.2808
816.24	7100.01531
816.426	7279.70206
816.613	7166.12651
816.799	7304.47331
816.986	7188.84697
817.173	7405.58988
817.359	7302.40916
817.546	7205.36926
817.732	7131.00778
817.919	7471.59697
818.105	7029.74711
818.292	7209.49961
818.478	7100.01531
818.665	7114.47909
818.851	6951.18133
819.037	7331.30527
819.224	6911.88622
819.41	7019.41136
819.597	6947.04539
819.783	7064.88444
819.969	7071.08448
820.156	6853.96274
820.342	7161.99523
820.528	7182.65075
820.714	6899.47555
820.901	7033.88125
821.087	6818.78622
821.273	6944.97738
821.459	6878.78927
821.646	7422.09373
821.832	7060.75098
822.018	7403.5268
822.204	6773.25388
822.39	7230.15004
822.576	7029.74711
822.762	7217.76005
822.948	6796.02143
823.134	7027.68
823.32	6758.764
823.507	7236.34474
823.693	6704.93463
823.879	7035.94828
824.065	6611.73172
824.25	6899.47555
824.436	6713.21708
824.622	6982.19802
824.808	6804.29985
824.994	6895.33847
825.18	6820.85561
825.366	6864.30752
825.552	6588.94169
825.738	6746.34321
825.923	6651.08974
826.109	6880.858
826.295	6733.9216
826.481	7056.61742
826.667	6847.7556
826.852	6994.60328
827.038	6690.43946
827.224	6767.04407
827.409	6804.29985
827.595	6889.13269
827.781	6545.42569
827.966	6866.37641
828.152	6669.73012
828.338	6609.66001
828.523	6545.42569
828.709	6829.13294
828.894	6572.36537
829.08	6588.94169
829.266	6530.91809
829.451	6775.32377
829.637	6638.66179
829.822	6798.09107
830.008	6367.1106
830.193	6402.37257
830.378	6400.29852
830.564	6402.37257
830.749	6356.73815
830.935	6551.64289
831.12	6169.93406
831.305	6097.23673
831.491	5974.62457
831.676	6205.23382
831.861	5953.83472
832.047	6340.14101
832.232	6142.93556
832.417	6412.74246
832.602	6244.67846
832.788	6338.06627
832.973	6105.54646
833.158	6238.45092
833.343	6211.46248
833.528	6286.19
833.714	5980.86107
833.899	6228.07122
834.084	6163.70399
834.269	6244.67846
834.454	5799.91653
834.639	6186.54656
834.824	6088.92664
835.009	6338.06627
835.194	6118.01034
835.379	6377.48247
835.564	5860.25122
835.749	6157.47371
835.934	6041.13626
836.119	6203.15755
836.304	6074.38305
836.489	6167.8574
836.674	6091.0042
836.859	6120.08757
837.044	6136.70457
837.228	6211.46248
837.413	6159.55049
837.598	6124.24196
837.783	5922.64553
837.968	5912.24795
838.152	5935.12184
838.337	6074.38305
838.522	5864.4115
838.707	6070.22753
838.891	5729.15403
839.076	5982.93985
839.261	5737.48045
839.445	5831.12661
839.63	5712.50007
839.815	5964.22994
839.999	5614.62753
840.184	5783.26899
840.368	5756.21351
840.553	5924.72497
840.737	5677.10538
840.922	5837.36798
841.106	5595.88004
841.291	5670.85855
841.475	5345.73121
841.66	5337.38708
841.844	5285.22783
842.029	5393.70262
842.213	5243.4899
842.397	5399.95885
842.582	5424.98164
842.766	5445.83138
842.951	5197.56738
843.135	5495.86116
843.319	5216.35523
843.504	5533.3746
843.688	5539.6261
843.872	5500.0297
844.056	5433.32182
844.241	5581.29733
844.425	5360.33252
844.609	5570.88041
844.793	5391.61717
844.977	5226.79211
845.161	5003.31602
845.346	5470.84796
845.53	5172.51398
845.714	5506.28232
845.898	5197.56738
846.082	5266.44692
846.266	5233.05396
846.45	5256.01226
846.634	5149.54542
846.818	5304.00685
847.002	5122.39712
847.186	5379.10394
847.37	4746.09698
847.554	5045.10743
847.738	4965.69587
847.922	4997.04652
848.106	5045.10743
848.29	5068.08876
848.473	4890.43321
848.657	4978.23675
848.841	4888.34215
849.025	4802.58928
849.209	4704.24019
849.392	4854.88218
849.576	4863.24772
849.76	4930.15888
849.944	4836.05838
850.127	5091.06729
850.311	4840.2416
850.495	4990.7768
850.678	4689.58818
850.862	5028.39198
851.046	4907.16081
851.229	5020.0337
851.413	4771.20671
851.596	5143.28077
851.78	4848.60778
851.964	4965.69587
852.147	4744.00435
852.331	4932.24947
852.514	4848.60778
852.698	4649.81289
852.881	4744.00435
853.065	4873.70414
853.248	4643.53184
853.431	4762.83716
853.615	4534.62836
853.798	4783.76035
853.982	4658.18731
854.165	4568.14354
854.348	4494.82173
854.532	4700.05402
854.715	4551.38666
854.898	4687.49495
855.081	4310.3509
855.265	4501.10751
855.448	4262.10927
855.631	4383.74019
855.814	4413.08846
855.997	4517.86865
856.181	4522.05871
856.364	4551.38666
856.547	4471.77214
856.73	4589.08764
856.913	4400.51115
857.096	4440.33659
857.279	4425.66498
857.462	4224.34706
857.645	4350.19409
857.828	4226.44514
858.011	4201.26675
858.194	4304.05916
858.377	3985.02804
858.56	4241.13112
858.743	4169.78948
858.926	4450.81565
859.109	4194.97168
859.292	4171.88811
859.475	4060.63168
859.658	4161.39474
859.841	4132.01049
860.023	4352.29089
860.206	4075.32928
860.389	4197.07006
860.572	4037.53339
860.755	4140.40641
860.937	3951.4179
861.12	4171.88811
861.303	4205.46336
861.486	4205.46336
861.668	4152.99966
861.851	4115.21764
862.034	3808.51731
862.216	3898.89168
862.399	3711.79747
862.581	3835.84367
862.764	3688.66274
862.947	3928.30792
863.129	3638.17895
863.312	3858.96336
863.494	3625.55629
863.677	3940.91367
863.859	3598.20488
864.042	3886.28352
864.224	3511.92213
864.406	3808.51731
864.589	3488.76785
864.771	3745.44382
864.954	3545.59714
865.136	3861.06503
865.318	3572.95462
865.501	3737.0327
865.683	3412.97492
865.865	3535.07421
866.048	3503.50265
866.23	3602.413
866.412	3442.45271
866.594	3762.26514
866.777	3429.8198
866.959	3404.55206
867.141	3311.88203
867.323	3417.18625
867.505	3526.65553
867.687	3474.03216
867.869	3282.3891
868.052	3465.61137
868.234	3326.62724
868.416	3644.49002
868.598	3442.45271
868.78	3526.65553
868.962	3375.0698
869.144	3682.35287
869.326	3320.30796
869.508	3408.76352
869.69	3225.5005
869.872	3490.87288
870.054	3299.24261
870.236	3505.60755
870.417	3221.28604
870.599	3606.62104
870.781	3269.74825
870.963	3320.30796
871.145	3250.78583
871.327	3514.02696
871.508	3177.03026
871.69	3322.41441
871.872	3065.30536
872.054	3273.96193
872.235	3198.10535
872.417	3257.10679
872.599	3143.30673
872.78	3347.69035
872.962	3105.36283
873.144	3162.27673
873.325	3044.2202
873.507	3488.76785
873.689	3021.02475
873.87	3450.87429
874.052	3031.56837
874.233	3193.89046
874.415	3254.99982
874.596	3421.3975
874.778	3212.85693
874.959	3158.06129
875.141	3185.4605
875.322	3130.65934
875.503	2985.17359
875.685	3134.8752
875.866	2748.87231
876.048	3139.091
876.229	2913.45828
876.41	3185.4605
876.592	3164.38443
876.773	3181.24541
876.954	3189.67551
877.136	3368.75173
877.317	3179.13785
877.498	3450.87429
877.679	3099.03835
877.86	3231.82206
878.042	3115.90332
878.223	3492.97788
878.404	3164.38443
878.585	3252.89283
878.766	3172.81505
878.947	3324.52083
879.128	3023.1335
879.309	3257.10679
879.49	3004.15416
879.672	3320.30796
879.853	3324.52083
880.034	3143.30673
880.215	3219.17879
880.396	3244.46472
880.576	3126.44342
880.757	3303.45582
880.938	3191.783
881.119	3286.60258
881.3	3118.01137
881.481	3461.40087
881.662	3318.20151
881.843	3288.70929
882.023	2947.2088
882.204	3145.41458
882.385	3073.73898
882.566	3307.66896
882.747	3105.36283
882.927	3446.66354
883.108	3023.1335
883.289	3345.58412
883.469	3217.07152
883.65	3360.32739
883.831	3204.42756
884.011	3459.29559
884.192	3223.39328
884.373	3459.29559
884.553	3238.14347
884.734	3227.6077
884.914	3316.09503
885.095	3589.78842
885.275	3124.33543
885.456	3509.81729
885.636	3257.10679
885.817	3398.23472
885.997	3217.07152
886.178	3356.11511
886.358	3130.65934
886.538	3610.829
886.719	3101.14652
886.899	3429.8198
887.08	3301.34922
887.26	3514.02696
887.44	3113.79526
887.621	3349.79657
887.801	3096.93015
887.981	3311.88203
888.161	3450.87429
888.342	3455.08498
888.522	3347.69035
888.702	3598.20488
888.882	3246.57178
889.062	3429.8198
889.242	3023.1335
889.423	3394.02308
889.603	3278.17555
889.783	3354.00895
889.963	3204.42756
890.143	3524.55081
890.323	3193.89046
890.503	3459.29559
890.683	3164.38443
890.863	3554.01516
891.043	3208.64228
891.223	3337.15901
891.403	3004.15416
891.583	3276.06875
891.763	3124.33543
891.943	3288.70929
892.122	3027.35097
892.302	3240.25057
892.482	3067.41378
892.662	3290.81599
892.842	3223.39328
893.022	3109.57908
893.201	3046.32879
893.381	3219.17879
893.561	3023.1335
893.741	3202.32017
893.92	3103.25469
894.1	3276.06875
894.28	2767.86729
894.459	3120.11941
894.639	2896.58162
894.819	3139.091
894.998	3136.98311
895.178	3143.30673
895.357	2886.03324
895.537	3126.44342
895.716	2799.52314
895.896	3225.5005
896.075	3151.73801
896.255	3151.73801
896.434	2848.05611
896.614	3105.36283
896.793	2953.5366
896.973	3134.8752
897.152	2921.89626
897.331	3071.6306
897.511	2643.32535
897.69	2930.33401
897.87	2721.43323
898.049	2883.92352
898.228	2744.65106
898.407	2841.72614
898.587	2565.20037
898.766	2942.99019
898.945	2755.20409
899.124	2721.43323
899.304	2717.21163
899.483	2854.38595
899.662	2734.0977
899.841	2759.42521
900.02	2476.49836
900.199	2869.15508
900.378	2425.80264
900.557	2535.63529
900.737	2482.83489
900.916	2565.20037
901.095	2571.53545
901.274	2506.06794
901.453	2455.3759
901.632	2601.0977
901.811	2432.13994
901.989	2674.99282
902.168	2404.67759
902.347	2575.75877
902.526	2318.0542
902.705	2503.9559
902.884	2400.45246
903.063	2683.43699
903.242	2345.52198
903.42	2392.00206
903.599	2140.53276
903.778	2313.82825
903.957	2003.126
904.135	2256.77413
904.314	2117.2815
904.493	2265.22702
904.672	2091.91543
904.85	2265.22702
905.029	2098.25705
905.207	2193.37293
905.386	2140.53276
905.565	2134.19161
905.743	1901.63843
905.922	1965.06978
906.1	1795.90902
906.279	2075.00412
906.457	1781.10599
906.636	2129.96413
906.814	1643.64099
906.993	1948.15526
907.171	1781.10599
907.35	1891.06604
907.528	1711.31777
907.707	1764.188
907.885	1508.28089
908.063	1783.22072
908.242	1571.73173
908.42	1789.56489
908.598	1643.64099
908.777	1675.36484
908.955	1552.69659
909.133	1823.3998
909.311	1550.58156
909.49	1660.56045
909.668	1624.60641
909.846	1719.77715
910.024	1470.21003
910.202	1719.77715
910.38	1459.63477
910.559	1645.75593
910.737	1364.45774
910.915	1630.95129
911.093	1480.78528
911.271	1622.49145
911.449	1527.31624
911.627	1529.43128
911.805	1417.33374
911.983	1709.20292
912.161	1381.378
912.339	1679.59464
912.517	1465.97992
912.695	1698.6286
912.872	1601.3417
913.05	1728.23648
913.228	1696.51373
913.406	1857.23355
913.584	1540.00643
913.762	1827.62908
913.939	1645.75593
914.117	1643.64099
914.295	1529.43128
914.473	1694.39885
914.65	1647.87087
914.828	1647.87087
915.006	1597.11172
915.184	1736.69576
915.361	1423.67889
915.539	1660.56045
915.716	1406.7585
915.894	1637.29615
916.072	1406.7585
916.249	1487.13043
916.427	1273.51298
916.604	1594.99673
916.782	1482.90033
916.959	1726.12166
917.137	1470.21003
917.314	1554.81161
917.492	1461.74982
917.669	1542.12146
917.847	1334.84747
918.024	1415.21869
918.201	1396.18328
918.379	1461.74982
918.556	1277.74289
918.733	1457.51971
918.911	1362.34271
919.088	1465.97992
919.265	1317.92745
919.442	1415.21869
919.62	1191.03198
919.797	1305.23751
919.974	1262.93825
920.151	1402.52841
920.328	1104.32706
920.506	1296.77759
920.683	1330.61746
920.86	1398.29832
921.037	1279.85784
921.214	1309.46748
921.391	1246.01882
921.568	1155.08031
921.745	1171.9986
921.922	1186.80231
922.099	1112.78575
922.276	1343.30752
922.453	1152.96554
922.63	1366.57277
922.807	1038.77494
922.984	1233.32936
923.161	1112.78575
923.338	1186.80231
923.514	1138.16228
923.691	1212.1805
923.868	1159.30986
924.045	1178.34303
924.222	1083.18066
924.399	1186.80231
924.575	823.13176
924.752	1032.43147
924.929	1032.43147
925.105	1011.28694
925.282	918.25884
925.459	983.8
925.635	840.04198
925.812	1076.83684
925.989	903.4602
926.165	920.37296
926.342	884.43395
926.518	933.05785
926.695	947.85722
926.871	897.11805
927.048	818.90429
927.224	1011.28694
927.401	736.47644
927.577	873.8641
927.754	766.06419
927.93	892.88998
928.107	776.63172
928.283	903.4602
928.459	772.40468
928.636	918.25884
928.812	801.99481
928.988	901.34614
929.165	833.70058
929.341	899.23209
929.517	755.4969
929.693	840.04198
929.87	734.3631
930.046	837.92817
930.222	711.11715
930.398	780.85881
930.574	649.83884
930.751	814.67687
930.927	628.71068
931.103	747.04326
931.279	675.19421
931.455	666.74223
931.631	613.9217
931.807	529.42547
931.983	497.74505
932.159	611.80904
932.335	527.31334
932.511	508.30483
932.687	512.52884
932.863	588.57061
933.039	493.52124
933.215	506.19285
933.391	525.20123
933.566	544.21075
933.742	398.50165
933.918	539.98631
934.094	495.63314
934.27	516.75291
934.445	432.28277
934.621	472.40309
934.797	387.9459
934.973	438.61718
935.148	375.27956
935.324	400.61285
935.5	343.61636
935.675	345.72712
935.851	273.97131
936.027	284.52232
936.202	360.50292
936.378	269.75104
936.553	316.17809
936.729	250.76076
936.904	263.42077
937.08	271.86117
937.255	248.65082
937.431	273.97131
937.606	229.66226
937.782	219.11374
937.957	210.67529
938.133	240.21127
938.308	126.30869
938.483	138.96154
938.659	257.09068
938.834	168.48784
939.009	223.33309
939.185	242.32113
939.36	147.39721
939.535	96.7884
939.71	96.7884
939.886	132.63502
940.061	147.39721
940.236	138.96154
940.411	189.58055
940.586	96.7884
940.761	198.0182
940.937	162.16043
941.112	138.96154
941.287	149.50617
941.462	82.02988
941.637	54.62413
941.812	75.70514
941.987	12.46906
942.162	109.43943
942.337	98.89685
942.512	126.30869
942.687	71.48875
942.862	147.39721
943.037	103.11382
943.212	164.26954
943.386	41.97663
943.561	96.7884
943.736	46.19237
943.911	79.92161
944.086	96.7884
944.26	6.14661
944.435	46.19237
944.61	50.4082
944.785	128.41744
944.959	164.26954
945.134	82.02988
945.309	84.13817
945.483	73.59693
945.658	124.19996
945.833	65.16435
946.007	20.89932
946.182	88.35483
946.357	18.79172
946.531	88.35483
946.706	109.43943
946.88	111.54801
947.055	46.19237
947.229	65.16435
947.404	60.94819
947.578	164.26954
947.752	88.35483
947.927	88.35483
948.101	29.32996
948.276	79.92161
948.45	117.87389
948.624	46.19237
948.799	88.35483
948.973	153.72418
949.147	105.22233
949.321	75.70514
949.496	48.30027
949.67	130.52622
949.844	92.57157
950.018	-6.49763
950.193	98.89685
950.367	-4.39031
950.541	98.89685
950.715	122.09124
950.889	54.62413
951.063	79.92161
951.237	54.62413
951.411	153.72418
951.585	130.52622
951.759	136.85268
951.933	69.38059
952.107	94.67998
952.281	122.09124
952.455	138.96154
952.629	98.89685
952.803	126.30869
952.977	39.86879
953.151	67.27246
953.325	155.83321
953.499	25.11459
953.672	119.98255
953.846	113.65661
954.02	162.16043
954.194	115.76524
954.368	101.00532
954.541	79.92161
954.715	58.84015
954.889	54.62413
955.062	56.73213
955.236	115.76524
955.41	98.89685
955.583	92.57157
955.757	126.30869
955.93	-4.39031
956.104	71.48875
956.278	29.32996
956.451	-23.35526
956.625	58.84015
956.798	113.65661
956.972	60.94819
957.145	16.68414
957.319	119.98255
957.492	84.13817
957.665	56.73213
957.839	164.26954
958.012	48.30027
958.185	54.62413
958.359	122.09124
958.532	147.39721
958.705	187.47118
958.879	94.67998
959.052	63.05626
959.225	105.22233
959.398	124.19996
959.572	115.76524
959.745	-2.28298
959.918	105.22233
960.091	94.67998
960.264	94.67998
960.438	117.87389
960.611	90.46319
960.784	96.7884
960.957	109.43943
961.13	46.19237
961.303	37.76098
961.476	107.33087
961.649	77.81336
961.822	41.97663
961.995	151.61516
962.168	73.59693
962.341	79.92161
962.514	96.7884
962.686	117.87389
962.859	82.02988
963.032	20.89932
963.205	105.22233
963.378	130.52622
963.551	79.92161
963.723	67.27246
963.896	155.83321
964.069	124.19996
964.242	82.02988
964.414	94.67998
964.587	109.43943
964.76	60.94819
964.932	113.65661
965.105	113.65661
965.278	50.4082
965.45	117.87389
965.623	157.94226
965.795	82.02988
965.968	115.76524
966.14	111.54801
966.313	73.59693
966.485	60.94819
966.658	111.54801
966.83	56.73213
967.003	50.4082
967.175	109.43943
967.348	58.84015
967.52	69.38059
967.692	82.02988
967.865	101.00532
968.037	147.39721
968.209	92.57157
968.382	50.4082
968.554	73.59693
968.726	82.02988
968.898	141.07043
969.071	117.87389
969.243	67.27246
969.415	119.98255
969.587	50.4082
969.759	-23.35526
969.932	86.24649
970.104	96.7884
970.276	122.09124
970.448	63.05626
970.62	79.92161
970.792	31.43768
970.964	143.17933
971.136	50.4082
971.308	115.76524
971.48	73.59693
971.652	115.76524
971.824	109.43943
971.996	113.65661
972.168	-2.28298
972.339	88.35483
972.511	-12.81942
972.683	79.92161
972.855	86.24649
973.027	25.11459
973.199	98.89685
973.37	23.00695
973.542	41.97663
973.714	46.19237
973.886	98.89685
974.057	88.35483
974.229	31.43768
974.401	35.65319
974.572	69.38059
974.744	117.87389
974.915	126.30869
975.087	58.84015
975.259	48.30027
975.43	50.4082
975.602	14.57659
975.773	90.46319
975.945	115.76524
976.116	86.24649
976.288	12.46906
976.459	105.22233
976.63	128.41744
976.802	82.02988
976.973	128.41744
977.145	147.39721
977.316	130.52622
977.487	39.86879
977.659	16.68414
977.83	29.32996
978.001	16.68414
978.172	46.19237
978.344	98.89685
978.515	12.46906
978.686	41.97663
978.857	73.59693
979.028	69.38059
979.2	10.36155
979.371	65.16435
979.542	101.00532
979.713	71.48875
979.884	27.22227
980.055	65.16435
980.226	6.14661
980.397	54.62413
980.568	37.76098
980.739	90.46319
980.91	16.68414
981.081	29.32996
981.252	84.13817
981.423	39.86879
981.594	-25.46235
981.765	46.19237
981.936	63.05626
982.106	63.05626
982.277	88.35483
982.448	39.86879
982.619	115.76524
982.79	-23.35526
982.96	77.81336
983.131	16.68414
983.302	58.84015
983.472	39.86879
983.643	82.02988
983.814	58.84015
983.984	98.89685
984.155	20.89932
984.326	75.70514
984.496	8.25407
984.667	12.46906
984.837	-27.56942
985.008	56.73213
985.178	4.03918
985.349	41.97663
985.519	8.25407
985.69	25.11459
985.86	29.32996
986.031	82.02988
986.201	67.27246
986.371	-21.24814
986.542	23.00695
986.712	-0.17561
986.882	46.19237
987.053	-4.39031
987.223	-21.24814
987.393	46.19237
987.563	79.92161
987.734	-27.56942
987.904	37.76098
988.074	41.97663
988.244	14.57659
988.414	54.62413
988.585	14.57659
988.755	-42.31821
988.925	50.4082
989.095	119.98255
989.265	-4.39031
989.435	16.68414
989.605	25.11459
989.775	14.57659
989.945	63.05626
990.115	33.54542
990.285	44.08449
990.455	63.05626
990.625	14.57659
990.795	41.97663
990.965	35.65319
991.134	20.89932
991.304	-19.141
991.474	90.46319
991.644	94.67998
991.814	-0.17561
991.984	48.30027
992.153	33.54542
992.323	29.32996
992.493	-25.46235
992.662	75.70514
992.832	37.76098
993.002	-2.28298
993.171	71.48875
993.341	50.4082
993.511	25.11459
993.68	20.89932
993.85	-59.17246
994.019	25.11459
994.189	37.76098
994.358	-38.10439
994.528	98.89685
994.697	63.05626
994.867	-25.46235
995.036	54.62413
995.206	4.03918
995.375	71.48875
995.544	71.48875
995.714	-8.60492
995.883	63.05626
996.052	63.05626
996.222	82.02988
996.391	46.19237
996.56	23.00695
996.73	12.46906
996.899	27.22227
997.068	4.03918
997.237	14.57659
997.406	50.4082
997.576	52.51615
997.745	145.28826
997.914	12.46906
998.083	-8.60492
998.252	25.11459
998.421	-25.46235
998.59	20.89932
998.759	33.54542
998.928	33.54542
999.097	37.76098
999.266	12.46906
999.435	90.46319
999.604	79.92161
999.773	33.54542
999.942	8.25407
1000.111	-4.39031
1000.28	-48.63874
1000.448	35.65319
1000.617	41.97663
1000.786	10.36155
1000.955	20.89932
1001.124	8.25407
1001.292	-31.78348
1001.461	14.57659
1001.63	29.32996
1001.798	20.89932
1001.967	-0.17561
1002.136	48.30027
1002.304	33.54542
1002.473	46.19237
1002.642	29.32996
1002.81	-4.39031
1002.979	90.46319
1003.147	4.03918
1003.316	-46.53192
1003.484	-0.17561
1003.653	-4.39031
1003.821	37.76098
1003.99	71.48875
1004.158	67.27246
1004.327	23.00695
1004.495	25.11459
1004.663	37.76098
1004.832	63.05626
1005	20.89932
1005.168	16.68414
1005.337	65.16435
1005.505	56.73213
1005.673	58.84015
1005.842	52.51615
1006.01	-21.24814
1006.178	54.62413
1006.346	63.05626
1006.514	14.57659
1006.683	20.89932
1006.851	1.93177
1007.019	4.03918
1007.187	8.25407
1007.355	6.14661
1007.523	82.02988
1007.691	18.79172
1007.859	23.00695
1008.027	-8.60492
1008.195	82.02988
1008.363	-10.71218
1008.531	12.46906
1008.699	23.00695
1008.867	8.25407
1009.035	39.86879
1009.203	-0.17561
1009.37	27.22227
1009.538	-19.141
1009.706	33.54542
1009.874	48.30027
1010.042	39.86879
1010.209	56.73213
1010.377	29.32996
1010.545	-2.28298
1010.713	-12.81942
1010.88	-31.78348
1011.048	-4.39031
1011.216	29.32996
1011.383	46.19237
1011.551	56.73213
1011.718	-33.89048
1011.886	-57.06577
1012.054	-27.56942
1012.221	-84.4508
1012.389	14.57659
1012.556	-21.24814
1012.724	48.30027
1012.891	65.16435
1013.058	39.86879
1013.226	37.76098
1013.393	56.73213
1013.561	27.22227
1013.728	73.59693
1013.895	-10.71218
1014.063	71.48875
1014.23	52.51615
1014.397	14.57659
1014.565	52.51615
1014.732	96.7884
1014.899	18.79172
1015.066	-52.8523
1015.233	67.27246
1015.401	48.30027
1015.568	-2.28298
1015.735	-4.39031
1015.902	-31.78348
1016.069	71.48875
1016.236	8.25407
1016.403	12.46906
1016.57	29.32996
1016.737	39.86879
1016.904	-67.59898
1017.071	4.03918
1017.238	25.11459
1017.405	14.57659
1017.572	35.65319
1017.739	33.54542
1017.906	33.54542
1018.073	10.36155
1018.24	39.86879
1018.407	-38.10439
1018.573	-69.70555
1018.74	20.89932
1018.907	-27.56942
1019.074	71.48875
1019.241	25.11459
1019.407	-19.141
1019.574	-21.24814
1019.741	-6.49763
1019.907	-31.78348
1020.074	10.36155
1020.241	16.68414
1020.407	-29.67646
1020.574	79.92161
1020.74	16.68414
1020.907	96.7884
1021.073	52.51615
1021.24	58.84015
1021.406	46.19237
1021.573	-12.81942
1021.739	48.30027
1021.906	82.02988
1022.072	-27.56942
1022.239	37.76098
1022.405	12.46906
1022.571	-50.74553
1022.738	33.54542
1022.904	58.84015
1023.07	54.62413
1023.237	4.03918
1023.403	48.30027
1023.569	18.79172
1023.735	10.36155
1023.902	41.97663
1024.068	-0.17561
1024.234	6.14661
1024.4	-4.39031
1024.566	-29.67646
1024.732	8.25407
1024.898	-0.17561
1025.065	-8.60492
1025.231	41.97663
1025.397	37.76098
1025.563	82.02988
1025.729	54.62413
1025.895	105.22233
1026.061	-69.70555
1026.227	20.89932
1026.392	29.32996
1026.558	8.25407
1026.724	-46.53192
1026.89	25.11459
1027.056	60.94819
1027.222	-21.24814
1027.388	90.46319
1027.553	20.89932
1027.719	-17.03383
1027.885	-25.46235
1028.051	37.76098
1028.216	18.79172
1028.382	50.4082
1028.548	-17.03383
1028.713	63.05626
1028.879	58.84015
1029.045	-38.10439
1029.21	-19.141
1029.376	115.76524
1029.541	52.51615
1029.707	-21.24814
1029.873	29.32996
1030.038	33.54542
1030.204	65.16435
1030.369	-6.49763
1030.534	71.48875
1030.7	-4.39031
1030.865	46.19237
1031.031	54.62413
1031.196	29.32996
1031.361	27.22227
1031.527	-0.17561
1031.692	6.14661
1031.857	25.11459
1032.023	-25.46235
1032.188	-46.53192
1032.353	-27.56942
1032.518	12.46906
1032.684	39.86879
1032.849	37.76098
1033.014	56.73213
1033.179	48.30027
1033.344	58.84015
1033.509	67.27246
1033.674	33.54542
1033.839	-12.81942
1034.004	67.27246
1034.17	14.57659
1034.335	52.51615
1034.5	92.57157
1034.664	88.35483
1034.829	20.89932
1034.994	25.11459
1035.159	33.54542
1035.324	10.36155
1035.489	23.00695
1035.654	63.05626
1035.819	65.16435
1035.984	20.89932
1036.148	10.36155
1036.313	50.4082
1036.478	48.30027
1036.643	-21.24814
1036.807	88.35483
1036.972	-17.03383
1037.137	-0.17561
1037.301	33.54542
1037.466	92.57157
1037.631	88.35483
1037.795	27.22227
1037.96	-21.24814
1038.124	-17.03383
1038.289	12.46906
1038.454	-10.71218
1038.618	25.11459
1038.783	54.62413
1038.947	132.63502
1039.111	18.79172
1039.276	122.09124
1039.44	20.89932
1039.605	65.16435
1039.769	60.94819
1039.933	50.4082
1040.098	41.97663
1040.262	37.76098
1040.426	6.14661
1040.591	-2.28298
1040.755	25.11459
1040.919	44.08449
1041.083	-40.21131
1041.248	29.32996
1041.412	77.81336
1041.576	88.35483
1041.74	31.43768
1041.904	-29.67646
1042.068	39.86879
1042.232	54.62413
1042.397	75.70514
1042.561	-44.42508
1042.725	54.62413
1042.889	23.00695
1043.053	29.32996
1043.217	-50.74553
1043.381	1.93177
1043.544	54.62413
1043.708	29.32996
1043.872	20.89932
1044.036	39.86879
1044.2	101.00532
1044.364	-21.24814
1044.528	60.94819
1044.691	8.25407
1044.855	-23.35526
1045.019	50.4082
1045.183	54.62413
1045.346	20.89932
1045.51	10.36155
1045.674	46.19237
1045.837	-42.31821
1046.001	-35.99745
1046.165	4.03918
1046.328	-21.24814
1046.492	29.32996
1046.655	-46.53192
1046.819	-23.35526
1046.983	46.19237
1047.146	14.57659
1047.31	18.79172
1047.473	-21.24814
1047.636	14.57659
1047.8	73.59693
1047.963	20.89932
1048.127	10.36155
1048.29	12.46906
