Data from Scatter_Coeff_Baseline_USB4F045381__44__0044.txt Node

Date: Thu Feb 13 19:30:21 EST 2025
User: mmckonesweet
Spectrometer: USB4F04538
Trigger mode: 4
Integration Time (sec): 2.400000E-3
Scans to average: 1
Electric dark correction enabled: true
Nonlinearity correction enabled: true
Boxcar width: 0
XAxis mode: Wavelengths
Number of Pixels in Spectrum: 3648
>>>>>Begin Spectral Data<<<<<
345.52	-10.53658
345.736	-10.53658
345.952	-10.53658
346.168	48.47593
346.384	-18.9654
346.6	-27.39383
346.816	-8.42931
347.032	4.2148
347.248	-33.71489
347.464	4.2148
347.68	71.66443
347.896	-4.2147
348.112	101.18103
348.328	-61.10358
348.544	-18.9654
348.76	29.5056
348.975	-56.89021
349.191	-50.56997
349.407	0
349.623	67.44814
349.839	-4.2147
350.055	-4.2147
350.27	-16.85823
350.486	-16.85823
350.702	37.93663
350.918	-52.67674
351.133	14.75222
351.349	-54.78349
351.565	-29.50088
351.781	29.5056
351.996	59.01582
352.212	71.66443
352.428	-48.46317
352.644	29.5056
352.859	-80.06246
353.075	56.90779
353.291	-21.07254
353.506	46.36803
353.722	8.4297
353.938	-16.85823
354.153	29.5056
354.369	-29.50088
354.584	88.53052
354.8	-23.17966
355.016	4.2148
355.231	0
355.447	-33.71489
355.662	63.23193
355.878	25.29023
356.093	-4.2147
356.309	37.93663
356.524	0
356.74	-4.2147
356.955	-10.53658
357.171	-42.14263
357.386	27.39791
357.602	25.29023
357.817	18.96735
358.033	-46.35635
358.248	65.34002
358.464	18.96735
358.679	-10.53658
358.895	44.26014
359.11	12.64469
359.325	71.66443
359.541	0
359.756	54.79979
359.972	46.36803
360.187	124.37568
360.402	25.29023
360.618	0
360.833	77.98905
361.048	-4.2147
361.264	12.64469
361.479	-67.42343
361.694	82.20557
361.909	54.79979
362.125	-2.10736
362.34	37.93663
362.555	54.79979
362.77	14.75222
362.986	-37.92881
363.201	-33.71489
363.416	-63.21022
363.631	-4.2147
363.847	-8.42931
364.062	69.55627
364.277	2.10739
364.492	-48.46317
364.707	-18.9654
364.922	31.61332
365.138	16.85977
365.353	54.79979
365.568	-42.14263
365.783	-4.2147
365.998	-23.17966
366.213	-33.71489
366.428	2.10739
366.643	-12.64382
366.858	21.07496
367.073	50.58386
367.288	4.2148
367.503	-25.28676
367.718	31.61332
367.933	-8.42931
368.148	31.61332
368.363	-29.50088
368.578	0
368.793	12.64469
369.008	-18.9654
369.223	44.26014
369.438	-23.17966
369.653	10.53718
369.868	-14.75104
370.083	27.39791
370.298	35.82884
370.513	61.12386
370.728	35.82884
370.943	48.47593
371.157	-71.63655
371.372	-12.64382
371.587	-23.17966
371.802	0
372.017	126.48442
372.232	23.18258
372.446	61.12386
372.661	-25.28676
372.876	4.2148
373.091	63.23193
373.306	-50.56997
373.52	-18.9654
373.735	65.34002
373.95	40.04444
374.165	73.77262
374.379	16.85977
374.594	-46.35635
374.809	59.01582
375.023	25.29023
375.238	31.61332
375.453	23.18258
375.667	-4.2147
375.882	14.75222
376.097	-25.28676
376.311	-29.50088
376.526	21.07496
376.741	44.26014
376.955	71.66443
377.17	52.69182
377.384	50.58386
377.599	31.61332
377.813	40.04444
378.028	14.75222
378.242	101.18103
378.457	-84.27527
378.672	-46.35635
378.886	18.96735
379.101	37.93663
379.315	4.2148
379.53	46.36803
379.744	59.01582
379.958	-61.10358
380.173	31.61332
380.387	63.23193
380.602	75.88082
380.816	29.5056
381.031	46.36803
381.245	40.04444
381.459	4.2148
381.674	29.5056
381.888	42.15228
382.103	-103.2316
382.317	-42.14263
382.531	52.69182
382.746	42.15228
382.96	21.07496
383.174	14.75222
383.388	37.93663
383.603	56.90779
383.817	63.23193
384.031	29.5056
384.246	-2.10736
384.46	29.5056
384.674	56.90779
384.888	21.07496
385.103	8.4297
385.317	96.96411
385.531	21.07496
385.745	-21.07254
385.959	-33.71489
386.174	0
386.388	18.96735
386.602	67.44814
386.816	42.15228
387.03	14.75222
387.244	-25.28676
387.458	10.53718
387.672	-46.35635
387.887	82.20557
388.101	-4.2147
388.315	50.58386
388.529	-4.2147
388.743	80.0973
388.957	50.58386
389.171	44.26014
389.385	56.90779
389.599	54.79979
389.813	40.04444
390.027	14.75222
390.241	75.88082
390.455	-46.35635
390.669	25.29023
390.883	-8.42931
391.097	23.18258
391.311	37.93663
391.525	0
391.738	31.61332
391.952	27.39791
392.166	40.04444
392.38	35.82884
392.594	25.29023
392.808	109.61514
393.022	16.85977
393.236	23.18258
393.449	-2.10736
393.663	25.29023
393.877	33.72107
394.091	18.96735
394.305	71.66443
394.518	14.75222
394.732	27.39791
394.946	0
395.16	8.4297
395.373	-33.71489
395.587	35.82884
395.801	12.64469
396.015	4.2148
396.228	0
396.442	4.2148
396.656	8.4297
396.869	56.90779
397.083	14.75222
397.297	143.35507
397.51	-14.75104
397.724	4.2148
397.938	-31.6079
398.151	40.04444
398.365	-12.64382
398.578	54.79979
398.792	0
399.005	4.2148
399.219	0
399.433	65.34002
399.646	25.29023
399.86	-27.39383
400.073	67.44814
400.287	-29.50088
400.5	31.61332
400.714	-12.64382
400.927	29.5056
401.141	-4.2147
401.354	56.90779
401.567	4.2148
401.781	33.72107
401.994	8.4297
402.208	4.2148
402.421	-16.85823
402.635	42.15228
402.848	12.64469
403.061	-4.2147
403.275	59.01582
403.488	-18.9654
403.701	8.4297
403.915	0
404.128	77.98905
404.341	21.07496
404.555	50.58386
404.768	23.18258
404.981	113.83233
405.195	46.36803
405.408	33.72107
405.621	67.44814
405.834	27.39791
406.048	118.04961
406.261	50.58386
406.474	37.93663
406.687	48.47593
406.9	56.90779
407.114	-12.64382
407.327	21.07496
407.54	50.58386
407.753	107.50658
407.966	-4.2147
408.179	54.79979
408.392	-18.9654
408.605	12.64469
408.819	46.36803
409.032	-29.50088
409.245	46.36803
409.458	37.93663
409.671	71.66443
409.884	40.04444
410.097	4.2148
410.31	59.01582
410.523	90.63889
410.736	16.85977
410.949	10.53718
411.162	54.79979
411.375	16.85977
411.588	56.90779
411.801	23.18258
412.014	37.93663
412.227	18.96735
412.44	80.0973
412.653	29.5056
412.865	48.47593
413.078	46.36803
413.291	37.93663
413.504	-12.64382
413.717	14.75222
413.93	-21.07254
414.143	90.63889
414.356	82.20557
414.568	16.85977
414.781	46.36803
414.994	107.50658
415.207	-16.85823
415.42	-12.64382
415.632	35.82884
415.845	16.85977
416.058	56.90779
416.271	-52.67674
416.483	-33.71489
416.696	8.4297
416.909	59.01582
417.121	-4.2147
417.334	-113.76198
417.547	50.58386
417.759	6.32224
417.972	42.15228
418.185	54.79979
418.397	56.90779
418.61	-12.64382
418.823	4.2148
419.035	-16.85823
419.248	-46.35635
419.46	2.10739
419.673	65.34002
419.885	46.36803
420.098	21.07496
420.311	29.5056
420.523	-4.2147
420.736	61.12386
420.948	-29.50088
421.161	21.07496
421.373	-16.85823
421.586	-4.2147
421.798	54.79979
422.01	59.01582
422.223	0
422.435	101.18103
422.648	16.85977
422.86	63.23193
423.073	2.10739
423.285	21.07496
423.497	73.77262
423.71	82.20557
423.922	73.77262
424.134	46.36803
424.347	-6.32202
424.559	-2.10736
424.771	71.66443
424.984	-18.9654
425.196	-58.9969
425.408	42.15228
425.621	101.18103
425.833	18.96735
426.045	77.98905
426.257	-37.92881
426.47	69.55627
426.682	29.5056
426.894	-4.2147
427.106	-29.50088
427.318	-16.85823
427.531	46.36803
427.743	54.79979
427.955	77.98905
428.167	4.2148
428.379	37.93663
428.591	96.96411
428.804	44.26014
429.016	80.0973
429.228	0
429.44	42.15228
429.652	-8.42931
429.864	0
430.076	37.93663
430.288	86.42218
430.5	21.07496
430.712	101.18103
430.924	33.72107
431.136	-31.6079
431.348	75.88082
431.56	71.66443
431.772	-8.42931
431.984	69.55627
432.196	73.77262
432.408	33.72107
432.62	99.07256
432.832	42.15228
433.044	71.66443
433.256	54.79979
433.468	63.23193
433.679	80.0973
433.891	4.2148
434.103	16.85977
434.315	0
434.527	48.47593
434.739	-27.39383
434.95	21.07496
435.162	109.61514
435.374	21.07496
435.586	80.0973
435.798	50.58386
436.009	92.74727
436.221	8.4297
436.433	46.36803
436.645	96.96411
436.856	16.85977
437.068	0
437.28	37.93663
437.491	14.75222
437.703	2.10739
437.915	50.58386
438.126	29.5056
438.338	105.39804
438.55	84.31387
438.761	37.93663
438.973	42.15228
439.184	-21.07254
439.396	101.18103
439.608	6.32224
439.819	120.15828
440.031	84.31387
440.242	-12.64382
440.454	92.74727
440.665	88.53052
440.877	29.5056
441.088	14.75222
441.3	65.34002
441.511	82.20557
441.723	46.36803
441.934	115.94096
442.146	46.36803
442.357	67.44814
442.569	105.39804
442.78	40.04444
442.991	29.5056
443.203	128.59318
443.414	120.15828
443.626	52.69182
443.837	54.79979
444.048	42.15228
444.26	4.2148
444.471	67.44814
444.682	33.72107
444.894	54.79979
445.105	25.29023
445.316	88.53052
445.528	33.72107
445.739	-2.10736
445.95	25.29023
446.161	96.96411
446.373	48.47593
446.584	33.72107
446.795	73.77262
447.006	14.75222
447.217	59.01582
447.429	128.59318
447.64	88.53052
447.851	54.79979
448.062	35.82884
448.273	42.15228
448.484	71.66443
448.695	29.5056
448.907	151.79091
449.118	46.36803
449.329	63.23193
449.54	4.2148
449.751	50.58386
449.962	67.44814
450.173	103.28953
450.384	-73.74306
450.595	80.0973
450.806	92.74727
451.017	80.0973
451.228	50.58386
451.439	82.20557
451.65	27.39791
451.861	42.15228
452.072	-16.85823
452.283	48.47593
452.494	101.18103
452.705	172.88198
452.915	44.26014
453.126	96.96411
453.337	46.36803
453.548	143.35507
453.759	-12.64382
453.97	122.26697
454.181	80.0973
454.391	56.90779
454.602	69.55627
454.813	177.10045
455.024	111.72373
455.235	46.36803
455.445	61.12386
455.656	4.2148
455.867	21.07496
456.078	107.50658
456.288	75.88082
456.499	128.59318
456.71	139.13728
456.921	164.4453
457.131	90.63889
457.342	88.53052
457.553	75.88082
457.763	59.01582
457.974	170.77278
458.184	82.20557
458.395	86.42218
458.606	44.26014
458.816	96.96411
459.027	158.11802
459.237	130.70195
459.448	101.18103
459.659	71.66443
459.869	107.50658
460.08	141.24617
460.29	217.1799
460.501	143.35507
460.711	139.13728
460.922	92.74727
461.132	172.88198
461.343	82.20557
461.553	174.9912
461.764	170.77278
461.974	109.61514
462.184	77.98905
462.395	221.39921
462.605	193.97512
462.816	153.89993
463.026	156.00896
463.236	141.24617
463.447	126.48442
463.657	158.11802
463.867	162.33619
464.078	172.88198
464.288	189.75633
464.498	215.07028
464.709	221.39921
464.919	164.4453
465.129	149.68192
465.339	234.05762
465.55	200.30345
465.76	223.5089
465.97	236.16742
466.18	202.41294
466.391	322.68561
466.601	164.4453
466.811	234.05762
467.021	278.36751
467.231	303.69116
467.441	286.80843
467.651	250.93658
467.862	276.25732
468.072	333.23872
468.282	272.03701
468.492	326.9068
468.702	310.02248
468.912	364.90064
469.122	269.92688
469.332	367.01157
469.542	314.24345
469.752	481.02615
469.962	276.25732
470.172	324.7962
470.382	379.67753
470.592	383.89964
470.802	371.23349
471.012	367.01157
471.222	462.02054
471.432	493.69724
471.642	472.57906
471.852	538.05013
472.062	489.47348
472.272	569.73455
472.482	658.46652
472.691	702.8405
472.901	512.70485
473.111	652.12779
473.321	656.3536
473.531	573.95937
473.741	654.24069
473.95	698.61419
474.16	679.59635
474.37	734.53922
474.58	654.24069
474.79	835.99052
474.999	755.67302
475.209	819.08044
475.419	814.85301
475.628	909.9786
475.838	960.71887
476.048	795.83004
476.258	886.72411
476.467	1072.78387
476.677	1131.99431
476.886	1174.28964
477.096	1102.38862
477.306	1043.18016
477.515	1017.80644
477.725	1180.63408
477.935	1043.18016
478.144	1212.35674
478.354	1345.59879
478.563	1341.36876
478.773	1411.16485
478.982	1288.49394
479.192	1375.20915
479.401	1436.54545
479.611	1626.89762
479.82	1542.29771
480.03	1593.05799
480.239	1711.49401
480.449	1660.73669
480.658	1789.74111
480.868	1832.03457
481.077	1914.50131
481.287	1829.91994
481.496	1751.67558
481.705	1965.24597
481.915	1988.50279
482.124	1882.78425
482.333	1965.24597
482.543	2049.81245
482.752	2125.91276
482.961	2163.9592
483.171	2392.17812
483.38	2144.93631
483.589	2134.36775
483.799	2356.26213
484.008	2590.71599
484.217	2421.75375
484.426	2603.38516
484.636	2561.15291
484.845	2734.27359
485.054	2643.50129
485.263	2681.50189
485.472	2573.82309
485.682	2789.14739
485.891	2744.82695
486.1	2780.70586
486.309	2848.23194
486.518	3006.43878
486.727	2879.87985
486.936	2928.40038
487.146	2829.24167
487.355	3046.5045
487.564	3054.93868
487.773	3219.35439
487.982	3248.8544
488.191	3250.96142
488.4	3156.12919
488.609	3522.62147
488.818	3278.35111
489.027	3337.33454
489.236	3495.25829
489.445	3653.07982
489.654	3484.73317
489.863	3728.79651
490.072	3316.27057
490.281	3619.42003
490.49	3648.87261
490.698	3749.82449
490.907	3642.56165
491.116	3867.54505
491.325	3842.32443
491.534	4140.58132
491.743	3892.7628
491.952	4077.60382
492.16	3817.10095
492.369	3974.70048
492.578	4008.30699
492.787	4211.93297
492.996	4140.58132
493.204	4211.93297
493.413	4182.55583
493.622	4392.30054
493.831	4297.942
494.039	4341.98144
494.248	4505.47253
494.457	4660.45532
494.665	4603.92169
494.874	4568.31808
495.083	4551.56122
495.291	4861.33065
495.5	4509.66285
495.709	4698.13532
495.917	4748.36396
496.126	4819.49887
496.335	4976.32084
496.543	4857.14788
496.752	4806.94756
496.96	5049.46017
497.169	5032.7451
497.377	5204.00417
497.586	4951.23799
497.794	5189.3906
498.003	5204.00417
498.211	5112.12847
498.42	5039.01343
498.628	5423.07029
498.837	5110.03987
499.045	5420.98517
499.254	5158.07195
499.462	5598.13678
499.671	5387.61998
499.879	5491.86622
500.087	5471.02168
500.296	5666.86741
500.504	5362.59214
500.713	5629.38116
500.921	5650.2078
501.129	5698.10011
501.338	5573.13746
501.546	5752.22422
501.754	5566.8871
501.962	5829.21948
502.171	5679.36113
502.379	5822.97782
502.587	5820.89722
502.795	5960.24518
503.004	5812.57459
503.212	6149.33941
503.42	5987.27058
503.628	6153.49314
503.837	5756.38695
504.045	6265.60836
504.253	6273.91048
504.461	6222.01612
504.669	6340.31391
504.877	6280.13682
505.085	6385.95239
505.294	6454.38898
505.502	6057.93357
505.71	6485.48814
505.918	6132.72355
506.126	6398.39729
506.334	6269.75947
506.542	6659.54718
506.75	6439.87424
506.958	6638.83441
507.166	6545.59839
507.374	6742.37529
507.582	6444.02142
507.79	6802.40275
507.998	6555.96026
508.206	6833.4439
508.414	6481.34189
508.622	6992.70808
508.83	6758.93651
509.037	6920.33191
509.245	6713.38963
509.453	6914.12695
509.661	6814.81982
509.869	6994.77557
510.077	6821.02806
510.285	7098.12116
510.492	6783.77559
510.7	7067.12337
510.908	7036.12054
511.116	7201.41093
511.324	7182.82287
511.531	7065.05667
511.739	7081.58963
511.947	7358.30549
512.155	6951.35366
512.362	7457.33169
512.57	7131.17994
512.778	7222.06222
512.985	7269.55181
513.193	7335.60492
513.401	7374.81334
513.608	7473.8312
513.816	7370.68651
514.024	7477.95586
514.231	7354.17831
514.439	7424.32852
514.646	7638.75061
514.854	7630.50789
515.061	7576.92189
515.269	7620.20401
515.477	7527.44506
515.684	7815.88747
515.892	7723.21899
516.099	7721.1592
516.307	7791.18002
516.514	7933.20708
516.722	7684.07952
516.929	8079.24883
517.136	7964.06953
517.344	7984.64194
517.551	7931.14942
517.759	8046.34695
517.966	8095.69783
518.173	7931.14942
518.381	8091.5857
518.588	8231.35321
518.796	8212.85986
519.003	8108.03374
519.21	8031.95075
519.418	8182.03403
519.625	8015.49674
519.832	8336.11878
520.039	8276.55246
520.247	8295.04032
520.454	8231.35321
520.661	8576.27312
520.868	8533.18772
521.076	8639.86023
521.283	8323.79606
521.49	8514.71999
521.697	8639.86023
521.904	8851.00604
522.112	8518.82406
522.319	8658.31765
522.526	8334.06504
522.733	8777.22955
522.94	8748.53233
523.147	8752.63216
523.354	8531.13582
523.561	8918.61399
523.768	8855.10405
523.975	9072.1967
524.183	8912.46862
524.39	9012.82309
524.597	9053.77197
524.804	9070.14958
525.011	9082.43205
525.218	9166.3457
525.425	9190.90035
525.632	8945.24209
525.838	8969.81922
526.045	9323.86257
526.252	9190.90035
526.459	9348.40174
526.666	9417.91655
526.873	9542.58739
527.08	9652.90247
527.287	9571.19199
527.494	9102.90146
527.701	9620.22128
527.907	9575.27811
528.114	9916.25192
528.321	9444.49077
528.528	9812.16695
528.735	9538.50077
528.941	9697.83263
529.148	9773.38027
529.355	9726.42068
529.562	9640.64749
529.768	9983.58066
529.975	9632.47719
530.182	10010.09978
530.388	9769.29715
530.595	10052.93324
530.802	9740.71358
531.008	9948.89814
531.215	9995.82056
531.422	10158.97021
531.628	10048.85413
531.835	10144.6982
532.042	10132.46452
532.248	10330.18196
532.455	10116.15215
532.661	10415.75241
532.868	10173.24154
533.074	10509.44609
533.281	10242.54982
533.487	10464.63947
533.694	10572.57228
533.9	10397.41783
534.107	10191.58939
534.313	10877.85546
534.52	10501.29989
534.726	10745.59918
534.933	10411.67815
535.139	10584.78886
535.345	10440.19687
535.552	10753.73947
535.758	10682.50546
535.965	10765.94954
536.171	10822.92424
536.377	11054.79966
536.584	10692.68265
536.79	10885.9927
536.996	10934.81231
537.203	10829.02813
537.409	10973.45654
537.615	10729.31804
537.821	11054.79966
538.028	11209.30376
538.234	10993.79398
538.44	11170.68349
538.646	11103.59711
538.853	11310.91815
539.059	10989.72659
539.265	11308.88611
539.471	11136.12529
539.677	11343.42938
539.883	11219.46635
540.09	11416.57033
540.296	11461.26133
540.502	11327.17409
540.708	11136.12529
540.914	11737.43217
541.12	11422.66484
541.326	11445.0106
541.532	11790.21061
541.738	11528.28912
541.944	11790.21061
542.15	11958.65731
542.356	11639.97943
542.562	11897.77956
542.768	11802.38942
542.974	12193.98443
543.18	11934.30709
543.386	12033.72988
543.592	11899.80894
543.798	11897.77956
544.004	12054.0179
544.21	12202.09734
544.415	11958.65731
544.621	12208.18194
544.827	12129.07689
545.033	12147.33291
545.239	12080.39118
545.445	12607.60126
545.651	12062.1329
545.856	12311.61028
546.062	12198.0409
546.268	12125.01992
546.474	12161.53161
546.679	12165.58832
546.885	11926.19009
547.091	12297.41533
547.297	11940.39476
547.502	12410.96543
547.708	12252.80037
547.914	12496.11415
548.119	12498.14136
548.325	12694.75093
548.531	12479.89624
548.736	12601.52063
548.942	12443.40441
549.147	12733.25543
549.353	12654.21758
549.559	12704.8839
549.764	12597.46685
549.97	12737.30841
550.175	12538.68421
550.381	12820.38956
550.586	12463.67791
550.792	12962.21415
550.997	12856.86125
551.203	12844.70422
551.408	13006.7823
551.614	13099.9625
551.819	12950.05877
552.025	13140.47245
552.23	13081.7324
552.435	13045.27103
552.641	13367.2951
552.846	13249.84018
553.052	13328.82004
553.257	13498.9095
553.462	13509.03302
553.668	13213.38572
553.873	13559.64925
554.078	13521.18112
554.283	13397.66912
554.489	13610.26326
554.694	13685.1681
554.899	13685.1681
555.105	13492.83535
555.31	13707.43624
555.515	13278.19267
555.72	13507.00832
555.925	13375.39493
556.131	13814.72293
556.336	13737.80127
556.541	13796.50503
556.746	13523.20579
556.951	13922.00144
557.156	13620.3858
557.361	13725.65534
557.567	13871.39934
557.772	13992.84161
557.977	13822.81969
558.182	13654.80182
558.387	13818.77132
558.592	13883.544
558.797	13802.57769
559.002	13952.36189
559.207	14057.6071
559.412	13970.57789
559.617	13881.51989
559.822	14098.0843
560.027	14124.39401
560.232	14197.24976
560.437	14025.22466
560.642	14429.96705
560.847	14096.06047
561.051	14223.55814
561.256	13711.48495
561.461	14130.46543
561.666	14187.13107
561.871	14227.60555
562.076	14429.96705
562.281	14506.86027
562.485	14355.09526
562.69	14215.46329
562.895	14300.45768
563.1	14480.55492
563.305	14320.69397
563.509	14500.78983
563.714	14519.00113
563.919	14561.49376
564.123	14458.29637
564.328	14858.92953
564.533	14529.11847
564.737	14203.32096
564.942	14472.46092
565.147	14786.0898
565.351	14502.81331
565.556	14533.1654
565.761	14664.68802
565.965	14929.7452
566.17	14713.24911
566.374	14603.98586
566.579	14907.48891
566.784	14620.1732
566.988	14840.71967
567.193	14897.3724
567.397	14753.71629
567.602	14867.02278
567.806	14954.02473
568.011	15002.58361
568.215	15164.44557
568.42	15488.17138
568.624	15039.00265
568.828	15322.26096
569.033	15028.88626
569.237	15026.86298
569.442	15200.86444
569.646	14984.37405
569.85	15045.07248
570.055	15215.02734
570.259	15043.0492
570.463	15558.98788
570.668	15449.72845
570.872	15372.84311
571.076	15474.00817
571.281	15441.63522
571.485	15382.95957
571.689	15488.17138
571.893	15300.00488
572.098	15382.95957
572.302	15368.79653
572.506	15652.06233
572.71	15342.4938
572.914	15405.21581
573.119	15297.9816
573.323	15150.28267
573.527	15459.84499
573.731	15720.85763
573.935	15817.98235
574.139	15927.25078
574.343	15595.40812
574.547	15917.13318
574.751	15981.88638
574.955	15749.18543
575.159	15813.93544
575.364	15866.54566
575.568	15832.14658
575.772	15917.13318
575.976	15617.66506
576.18	16008.19276
576.383	15992.00419
576.587	16044.61738
576.791	15836.19352
576.995	16091.16065
577.199	16058.78264
577.403	16400.79697
577.607	16455.44318
577.811	16584.98097
578.015	16202.46313
578.219	16340.08064
578.422	16174.13112
578.626	16364.36696
578.83	16376.51023
579.034	16338.05679
579.238	16147.82312
579.442	16362.34309
579.645	16198.41568
579.849	16297.58022
580.053	16495.92281
580.257	16358.29535
580.46	16562.71604
580.664	16720.60055
580.868	16706.43085
581.071	16684.16442
581.275	16868.3773
581.479	16740.84317
581.682	16412.94044
581.886	16548.54758
582.09	16817.76734
582.293	16866.35287
582.497	16825.86483
582.7	16809.66989
582.904	16623.43922
583.107	16548.54758
583.311	16414.96436
583.515	16704.40662
583.718	16580.93278
583.922	16904.81744
584.125	16993.89691
584.329	17125.50113
584.532	17087.031
584.735	17127.5259
584.939	16696.30971
585.142	16991.87232
585.346	17172.0716
585.549	17255.09229
585.753	17123.47636
585.956	17336.09286
586.159	17234.84289
586.363	17745.22196
586.566	17196.36983
586.769	17419.12346
586.973	17496.0833
587.176	17348.24336
587.379	17370.51956
587.582	17540.64108
587.786	17267.24207
587.989	17763.45359
588.192	17613.55716
588.395	17198.3947
588.599	17595.32774
588.802	17791.81443
589.005	17739.14482
589.208	17718.88788
589.411	17587.22587
589.615	17518.36199
589.818	17844.48636
590.021	17909.31653
590.224	17729.0163
590.427	17674.32379
590.63	17749.27341
590.833	17801.94347
591.036	17801.94347
591.239	17970.09807
591.442	17633.81237
591.645	17998.46387
591.848	18032.909
592.051	17893.10866
592.254	18065.32888
592.457	18353.09629
592.66	18099.77602
592.863	18351.0695
593.066	17915.39454
593.269	18385.52548
593.472	18018.72559
593.675	18038.98766
593.878	18047.09258
594.081	18292.29414
594.284	18243.65484
594.486	18626.7483
594.689	18499.03533
594.892	18338.90882
595.095	18363.23031
595.298	18537.55032
595.5	18203.12373
595.703	18539.57746
595.906	18324.72153
596.109	18557.82193
596.311	18636.88491
596.514	18565.93068
596.717	18525.38754
596.92	18608.50265
597.122	18612.55721
597.325	18468.62973
597.528	18811.24999
597.73	19151.95538
597.933	18827.47148
598.136	18795.02875
598.338	18874.1097
598.541	18837.61005
598.743	18717.98132
598.946	18987.67249
599.148	18955.22469
599.351	18999.84068
599.554	19109.36096
599.756	18908.58279
599.959	19156.01209
600.161	19060.68382
600.363	18793.00111
600.566	18527.41466
600.768	19087.05031
600.971	19123.5589
601.173	19216.86464
601.376	19233.09261
601.578	19210.77922
601.78	19360.89708
601.983	19304.09307
602.185	19125.58719
602.388	18977.53244
602.59	19346.69577
602.792	19470.45683
602.995	19472.48583
603.197	18987.67249
603.399	18951.16879
603.601	18823.41609
603.804	18991.72854
604.006	19218.89312
604.208	19115.44577
604.41	19174.26747
604.613	19048.5149
604.815	19218.89312
605.017	19462.34088
605.219	19336.55211
605.421	19470.45683
605.623	19567.85345
605.826	19805.29803
606.028	19513.06667
606.23	19502.9213
606.432	19565.82425
606.634	19707.87793
606.836	19482.63088
607.038	19744.40934
607.24	19575.97027
607.442	19734.26159
607.644	19809.35741
607.846	19778.91246
608.048	19320.32246
608.25	19594.23335
608.452	19563.79506
608.654	19620.61396
608.856	19592.2041
609.058	19825.5951
609.26	19730.20252
609.462	19996.10707
609.664	19766.73475
609.866	19472.48583
610.067	19450.16707
610.269	19306.12173
610.471	19535.38684
610.673	19778.91246
610.875	19431.90665
611.077	19748.46846
611.278	19456.25396
611.48	19837.77354
611.682	19515.09575
611.884	19841.83305
612.085	19795.14965
612.287	19791.09033
612.489	19665.25968
612.69	19967.68635
612.892	19527.27036
613.094	19756.58677
613.295	19565.82425
613.497	19870.25013
613.699	19618.58466
613.9	19533.35771
614.102	19787.03102
614.304	20065.13226
614.505	19713.96641
614.707	19776.88283
614.908	19604.37966
615.11	19910.84738
615.311	19657.14212
615.513	19348.72452
615.714	19811.3871
615.916	19920.99695
616.117	19841.83305
616.319	19726.14346
616.52	19575.97027
616.722	19996.10707
616.923	20065.13226
617.124	20166.64872
617.326	19929.11669
617.527	20243.80826
617.729	20280.35963
617.93	20373.77489
618.131	20012.34785
618.333	19789.06067
618.534	19864.16069
618.735	20400.17646
618.937	19896.63815
619.138	19951.4463
619.339	20016.40809
619.54	20172.74004
619.742	19785.00138
619.943	20156.4966
620.144	19955.50629
620.345	20152.43578
620.546	20099.64667
620.748	20260.05315
620.949	20199.1362
621.15	20670.32549
621.351	20335.18925
621.552	20251.93067
621.753	20195.07521
621.954	20320.97387
622.155	20170.70959
622.356	20574.85085
622.558	20387.99103
622.759	20597.19515
622.96	20410.3311
623.161	20416.42393
623.362	20152.43578
623.563	19929.11669
623.764	20201.16671
623.965	20075.28343
624.166	20245.83885
624.366	19730.20252
624.567	19687.58329
624.768	20115.88917
624.969	20016.40809
625.17	20345.34322
625.371	20288.48235
625.572	20052.95099
625.773	20117.9195
625.973	20420.48584
626.174	19971.7464
626.375	20095.58609
626.576	20205.22773
626.777	20479.38543
626.977	19849.95213
627.178	20918.1961
627.379	20304.72797
627.58	20262.08378
627.78	20278.32897
627.981	20184.9228
628.182	20804.41177
628.382	20625.63408
628.583	20345.34322
628.784	20619.53996
628.984	20211.31929
629.185	20964.9327
629.386	20166.64872
629.586	20747.52447
629.787	20473.2922
629.987	20637.82245
630.188	20745.49284
630.388	20650.01096
630.589	20410.3311
630.79	20377.83662
630.99	20124.01052
631.191	20631.72825
631.391	20481.41651
631.591	20361.58978
631.792	20357.52812
631.992	20578.91341
632.193	20997.44639
632.393	20971.02894
632.594	20802.38003
632.794	20650.01096
632.994	20814.57056
633.195	20822.69767
633.395	20784.09451
633.595	20654.07383
633.796	20503.7587
633.996	20708.92423
634.196	20806.44352
634.397	21031.99335
634.597	20434.70266
634.797	20777.99941
634.997	20505.78983
635.198	20812.53879
635.398	21054.34789
635.598	21310.44415
635.798	20652.0424
635.998	20761.74599
636.199	20834.88845
636.399	20983.22152
636.599	20696.73499
636.799	21123.44687
636.999	20731.27156
637.199	21050.28339
637.399	20830.82484
637.599	21277.92042
637.799	20834.88845
637.999	21231.16938
638.199	20983.22152
638.399	21099.05846
638.599	20871.46169
638.799	21221.00639
638.999	20946.64421
639.199	21269.78965
639.399	21005.57498
639.599	21269.78965
639.799	20989.31787
639.999	20930.38805
640.199	20962.90063
640.399	21233.20199
640.599	20660.16817
640.799	21523.90654
640.998	21141.73857
641.198	21082.79984
641.398	21038.08999
641.598	21525.93973
641.798	21273.85503
641.997	21249.46301
642.197	21401.92264
642.397	21481.21055
642.597	21334.83762
642.796	21572.70411
642.996	21424.28528
643.196	21355.16595
643.395	21064.50921
643.595	21418.18633
643.795	21200.68072
643.994	21446.6484
644.194	21247.43037
644.394	21393.79089
644.593	21178.32295
644.793	21292.14942
644.992	20979.15731
645.192	22093.35095
645.392	21767.917
645.591	21540.17215
645.791	21517.80701
645.99	21361.26453
646.19	21223.03898
646.389	21916.3841
646.589	21576.77067
646.788	21456.81362
646.987	21255.56096
647.187	21405.98854
647.386	21432.41727
647.586	21745.54703
647.785	21168.16049
647.984	21818.75959
648.184	21896.04493
648.383	21662.17221
648.582	21586.93716
648.782	21444.61537
648.981	21202.71327
649.18	21408.02149
649.38	21566.60429
649.579	22032.32466
649.778	21708.94264
649.977	21595.07042
650.177	21473.07817
650.376	21869.60458
650.575	21436.48329
650.774	22007.91509
650.973	21859.43539
651.173	22001.81279
651.372	21993.67643
651.571	21932.65572
651.77	21796.38855
651.969	21560.5045
652.168	21694.70794
652.367	21641.83788
652.566	21446.6484
652.765	22022.15394
652.964	22068.94002
653.163	21946.89358
653.362	22168.62135
653.561	21944.85958
653.76	21961.13162
653.959	21456.81362
654.158	21788.25374
654.357	22009.9492
654.556	21517.80701
654.755	22286.62305
654.954	21861.46922
655.153	21832.99594
655.352	21672.33952
655.551	21521.87336
655.749	21900.11274
655.948	21698.77498
656.147	21408.02149
656.346	22115.7281
656.545	22009.9492
656.743	21605.23708
656.942	21649.97156
657.141	22138.10571
657.34	21961.13162
657.538	21902.14664
657.737	21778.08532
657.936	22243.89686
658.135	21855.36774
658.333	21883.84161
658.532	21814.69209
658.731	22026.22222
658.929	22068.94002
659.128	21975.36986
659.326	21955.02958
659.525	22290.6923
659.724	22062.83738
659.922	22217.44813
660.121	21680.47343
660.319	22119.79672
660.518	21845.19868
660.716	21855.36774
660.915	21617.43721
661.113	21959.09761
661.312	21778.08532
661.51	21743.51342
661.709	21749.61426
661.907	22091.31668
662.105	22028.25636
662.304	22270.34622
662.502	22014.01743
662.701	21904.18055
662.899	22018.08568
663.097	21851.30011
663.296	21906.21447
663.494	22180.82785
663.692	21749.61426
663.891	21944.85958
664.089	22038.42713
664.287	22213.37915
664.485	21957.06359
664.684	22467.71862
664.882	22408.70679
665.08	22740.43289
665.278	22164.55255
665.476	22313.07341
665.675	22221.51713
665.873	22329.35087
666.071	22459.57887
666.269	22571.50536
666.467	22453.4741
666.665	22547.08411
666.863	22262.20789
667.061	22606.103
667.259	22231.68968
667.457	22123.86536
667.655	22117.76241
667.853	22313.07341
668.051	21737.41261
668.249	22107.5909
668.447	21894.01104
668.645	22083.17966
668.843	22164.55255
669.041	21891.97714
669.239	21751.64789
669.437	22046.56382
669.635	21971.30177
669.833	22447.36937
670.031	21975.36986
670.229	21906.21447
670.426	21920.45198
670.624	22123.86536
670.822	21619.47057
671.02	21871.63843
671.218	21991.64236
671.415	21704.87557
671.613	22188.96559
671.811	22138.10571
672.009	22323.24679
672.206	22286.62305
672.404	22160.48377
672.602	22191.00003
672.799	21894.01104
672.997	22191.00003
673.195	21912.31624
673.392	22044.52964
673.59	22351.73274
673.788	21946.89358
673.985	21957.06359
674.183	22134.03702
674.38	21898.07883
674.578	21824.86086
674.775	21835.02972
674.973	21536.10572
675.17	21186.45299
675.368	21792.32114
675.565	21633.70426
675.763	21900.11274
675.96	21938.75763
676.158	21944.85958
676.355	21674.37299
676.553	21902.14664
676.75	21737.41261
676.947	21580.83726
677.145	21489.34298
677.342	21658.10531
677.539	21942.8256
677.737	21865.5369
677.934	21700.8085
678.131	21877.74001
678.329	21544.23859
678.526	21652.00499
678.723	21595.07042
678.92	21961.13162
679.118	21682.50692
679.315	22009.9492
679.512	21828.92839
679.709	21912.31624
679.906	21800.45598
680.104	21790.28744
680.301	21532.03931
680.498	21442.58235
680.695	21381.59338
680.892	21387.69212
681.089	21855.36774
681.286	21997.7446
681.483	21731.31184
681.68	22136.07136
681.877	21432.41727
682.075	21572.70411
682.272	21062.47694
682.469	21900.11274
682.665	21479.17745
682.862	21542.20536
683.059	21442.58235
683.256	21723.17753
683.453	21647.93814
683.65	21586.93716
683.847	21629.63747
684.044	21310.44415
684.241	21351.10025
684.438	21556.438
684.635	20916.16413
684.831	21298.24763
685.028	20895.84459
685.225	21257.59362
685.422	21127.51167
685.619	21558.47125
685.815	21420.21931
686.012	21391.75796
686.209	20910.06822
686.405	21446.6484
686.602	21076.70293
686.799	21103.12315
686.996	21188.48551
687.192	20993.38212
687.389	21105.15551
687.586	20857.2386
687.782	21052.31564
687.979	21066.54149
688.175	20869.4298
688.372	21304.34587
688.568	20877.55735
688.765	21070.60605
688.962	20922.26007
689.158	21044.18667
689.355	21172.22546
689.551	20650.01096
689.748	20611.41451
689.944	21066.54149
690.14	20800.34829
690.337	20877.55735
690.533	20916.16413
690.73	20836.92026
690.926	21153.93322
691.123	20676.41993
691.319	20879.58925
691.515	20845.04755
691.712	20611.41451
691.908	20845.04755
692.104	20367.68232
692.301	20696.73499
692.497	20233.65534
692.693	20329.09692
692.889	20404.2383
693.086	20513.91441
693.282	20761.74599
693.478	20847.07938
693.674	20777.99941
693.87	20912.10018
694.067	21066.54149
694.263	20725.17678
694.459	20656.10528
694.655	20499.69644
694.851	20209.28876
695.047	20473.2922
695.243	20444.85766
695.439	20448.91968
695.635	20526.10139
695.831	20717.05047
696.027	20654.07383
696.224	20968.99685
696.42	20314.88163
696.615	21076.70293
696.811	20639.85386
697.007	20552.50705
697.203	20507.82097
697.399	20639.85386
697.595	20497.66532
697.791	20542.35094
697.987	20485.47869
698.183	20794.25309
698.379	20501.72757
698.575	20562.66326
698.77	20219.44143
698.966	20087.46497
699.162	19920.99695
699.358	20170.70959
699.554	20278.32897
699.749	20643.91669
699.945	20272.23699
700.141	20274.26764
700.337	20294.57442
700.532	20282.3903
700.728	20128.07122
700.924	20024.52862
701.119	19923.02688
701.315	19748.46846
701.511	19854.0117
701.706	20580.9447
701.902	20258.02252
702.097	20223.50253
702.293	20020.46834
702.489	20079.34393
702.684	20140.25342
702.88	20333.15847
703.075	20103.70727
703.271	20158.52701
703.466	20113.85884
703.662	20387.99103
703.857	20664.23109
704.053	20284.42098
704.248	20357.52812
704.443	19843.86282
704.639	19713.96641
704.834	19815.44651
705.03	20065.13226
705.225	20006.25753
705.42	19799.20899
705.616	19975.80647
705.811	19847.92236
706.006	20026.55876
706.202	19833.71404
706.397	19492.77604
706.592	19283.80671
706.787	19498.86319
706.983	19462.34088
707.178	20046.86041
707.373	19628.73121
707.568	19793.11999
707.763	19884.45897
707.959	19835.74379
708.154	20057.01139
708.349	19925.05681
708.544	19884.45897
708.739	19856.04149
708.934	19537.41597
709.129	19403.50221
709.324	19080.96567
709.519	19754.55719
709.714	19243.23522
709.909	19638.87787
710.104	19356.83954
710.299	19724.11394
710.494	19841.83305
710.689	19724.11394
710.884	19468.42783
711.079	19482.63088
711.274	19364.95463
711.469	19561.76588
711.664	19462.34088
711.859	19606.40893
712.054	19638.87787
712.249	19393.35797
712.443	19170.21069
712.638	19577.99948
712.833	19360.89708
713.028	19943.32638
713.223	19655.11275
713.417	19864.16069
713.612	19819.50593
713.807	19851.98192
714.002	19697.73056
714.196	19677.43613
714.391	19145.87035
714.586	19362.92585
714.78	19433.93557
714.975	19511.03759
715.17	19348.72452
715.364	19701.7895
715.559	19423.79101
715.754	19214.83616
715.948	19304.09307
716.143	19168.1823
716.337	18971.44846
716.532	19151.95538
716.726	19584.08715
716.921	19381.18501
717.115	19486.68893
717.31	19218.89312
717.504	19097.19145
717.699	19105.30444
717.893	18671.35012
718.088	18709.8714
718.282	18934.94534
718.476	18661.21318
718.671	18687.56943
718.865	18934.94534
719.059	18855.85971
719.254	18833.55461
719.448	18845.72097
719.642	18689.59687
719.837	18602.42083
720.031	18912.63852
720.225	18359.17669
720.419	18624.72099
720.614	18417.95565
720.808	18677.43233
721.002	18249.73464
721.196	18807.19466
721.39	18610.52993
721.585	18675.40493
721.779	18878.1653
721.973	18748.3941
722.167	18369.31077
722.361	18685.54201
722.555	18513.2249
722.749	18478.76483
722.943	18369.31077
723.137	18371.33759
723.331	18411.87492
723.525	18561.8763
723.719	18401.74045
723.913	18401.74045
724.107	18150.43547
724.301	18541.60461
724.495	18486.87298
724.689	18683.51458
724.883	18426.06334
725.077	18740.28394
725.271	18298.3742
725.465	18081.53917
725.659	18286.21411
725.853	18300.4009
726.046	18296.34751
726.24	18201.09721
726.434	18109.90773
726.628	18184.8852
726.822	17974.15028
727.015	18393.63293
727.209	17836.38283
727.403	18411.87492
727.596	18099.77602
727.79	18091.67072
727.984	18255.81447
728.177	18172.72636
728.371	18298.3742
728.565	17801.94347
728.758	18067.35516
728.952	18071.40771
729.146	18205.15025
729.339	18484.84594
729.533	18357.14988
729.726	18334.85529
729.92	18460.52172
730.113	18355.12308
730.307	18241.62825
730.5	18184.8852
730.694	17799.91766
730.887	18302.4276
731.081	18128.14503
731.274	18557.82193
731.468	18233.52193
731.661	18531.46891
731.854	18415.92873
732.048	18606.47537
732.241	18215.28291
732.435	18409.84802
732.628	18371.33759
732.821	18239.60167
733.014	18322.69479
733.208	18140.3034
733.401	18047.09258
733.594	18122.0659
733.788	17826.25351
733.981	17939.70691
734.174	18103.82869
734.367	18032.909
734.56	17901.21257
734.754	18103.82869
734.947	18300.4009
735.14	18426.06334
735.333	18073.434
735.526	18043.04011
735.719	18091.67072
735.912	18051.14507
736.105	17980.22863
736.298	17747.24768
736.491	17595.32774
736.684	17664.19581
736.877	17803.96929
737.07	17504.1846
737.263	17917.42056
737.456	18107.88138
737.649	18239.60167
737.842	18344.98914
738.035	18192.99118
738.228	17860.69357
738.421	18022.77797
738.614	17852.58993
738.807	18063.30261
739	17562.92055
739.192	17370.51956
739.385	17579.12404
739.578	17259.14221
739.771	17135.62502
739.964	17514.31129
740.156	17601.40419
740.349	17415.07307
740.542	17419.12346
740.735	17115.37731
740.927	17078.93215
741.12	17093.10516
741.313	17459.62807
741.505	17330.01765
741.698	17325.96753
741.891	17617.60817
742.083	17427.22428
742.276	17585.2004
742.468	17556.84429
742.661	17323.94247
742.854	17502.15927
743.046	17666.2214
743.239	17471.7797
743.431	17481.90614
743.624	17119.42683
743.816	17267.24207
744.009	17506.20993
744.201	17208.51911
744.393	17174.09643
744.586	17093.10516
744.778	17269.26705
744.971	17350.26845
745.163	17500.13394
745.355	17467.72915
745.548	17238.89275
745.74	17184.22066
745.932	17147.77378
746.125	17170.04676
746.317	17101.20409
746.509	17064.75928
746.702	17255.09229
746.894	17006.04451
747.086	17463.6786
747.278	17273.317
747.471	17301.66703
747.663	16801.57248
747.855	17253.06734
748.047	17200.41958
748.239	17066.78397
748.431	16730.72183
748.623	17139.67459
748.815	16775.25618
749.008	17255.09229
749.2	17255.09229
749.392	17285.46694
749.584	16925.06233
749.776	17232.81797
749.968	16797.52379
750.16	17317.86731
750.352	16983.77399
750.544	17016.16759
750.736	17082.98157
750.928	17273.317
751.12	17176.12127
751.311	17321.91741
751.503	16971.62657
751.695	16785.37779
751.887	16718.5763
752.079	16912.91537
752.271	16694.28549
752.463	16908.8664
752.654	16623.43922
752.846	16876.47503
753.038	16263.17572
753.23	16510.09088
753.421	16325.91374
753.613	16404.84478
753.805	16392.70135
753.997	16431.15579
754.188	16176.15483
754.38	16338.05679
754.572	16301.62785
754.763	16358.29535
754.955	16113.42076
755.146	16443.29945
755.338	16360.31922
755.53	15945.46254
755.721	16192.34452
755.913	16589.02917
756.104	16291.5088
756.296	16530.33115
756.487	16265.1995
756.679	16338.05679
756.87	16325.91374
757.062	15969.74505
757.253	16121.51539
757.445	16079.01885
757.636	16265.1995
757.827	16809.66989
758.019	16495.92281
758.21	16370.43858
758.401	15987.95706
758.593	16174.13112
758.784	16240.91425
758.975	16014.2635
759.167	16020.33425
759.358	15791.6775
759.549	15751.20885
759.74	15753.23227
759.932	16129.61005
760.123	16064.85349
760.314	16095.20793
760.505	15927.25078
760.696	15759.30255
760.888	15684.43646
761.079	15625.75851
761.27	15785.60718
761.461	15619.68842
761.652	15461.8683
761.843	15595.40812
762.034	15575.17463
762.225	15571.12794
762.416	16002.12204
762.607	15654.08571
762.798	15668.24937
762.989	15561.01122
763.18	15629.80524
763.371	15372.84311
763.562	15403.19251
763.753	15387.00615
763.944	15480.07812
764.135	15336.42395
764.326	15403.19251
764.517	15049.11903
764.708	15115.88707
764.899	15231.21352
765.089	15261.56262
765.28	15253.46952
765.471	15611.59498
765.662	15192.77136
765.853	15453.77506
766.043	15097.67762
766.234	15083.51471
766.425	14755.73964
766.615	14964.14118
766.806	14836.67303
766.997	15089.58453
767.187	14832.62639
767.378	15208.95753
767.569	15138.14305
767.759	15002.58361
767.95	14976.2809
768.141	15291.91177
768.331	14864.99947
768.522	14986.39734
768.712	14935.81509
768.903	15089.58453
769.093	14480.55492
769.284	14954.02473
769.474	14984.37405
769.665	14326.76482
769.855	14693.01539
770.046	14573.63441
770.236	14860.95284
770.426	14723.36593
770.617	14775.97309
770.807	14636.36047
770.998	14725.3893
771.188	14721.34257
771.378	14662.66463
771.569	14606.00928
771.759	14235.70035
771.949	14557.44687
772.139	14452.22582
772.33	14553.39997
772.52	14474.48442
772.71	14464.3669
772.9	14221.53443
773.09	14187.13107
773.281	14468.41391
773.471	14577.68129
773.661	14533.1654
773.851	14452.22582
774.041	14425.91998
774.231	14326.76482
774.421	14284.26853
774.611	14144.63199
774.802	14268.07925
774.992	14055.58321
775.182	14326.76482
775.372	14136.53682
775.562	14172.96481
775.752	14255.93722
775.942	13822.81969
776.131	13982.72177
776.321	13701.36315
776.511	14201.29723
776.701	14128.44162
776.891	14211.41585
777.081	13972.60188
777.271	13865.32697
777.461	13922.00144
777.651	13974.62586
777.84	13638.60617
778.03	13881.51989
778.22	14043.43985
778.41	13974.62586
778.599	13606.21422
778.789	13824.84388
778.979	13575.84597
779.169	13407.79359
779.358	13409.81847
779.548	13843.06141
779.738	13571.79681
779.927	13466.51362
780.117	13314.64464
780.307	13280.21781
780.496	13154.6505
780.686	13458.4145
780.875	13099.9625
781.065	13482.71168
781.254	13369.32006
781.444	13531.30444
781.633	13484.73642
781.823	13519.15645
782.012	13476.63743
782.202	13579.89511
782.391	13426.0174
782.581	13259.96616
782.77	13104.01358
782.96	13002.73075
783.149	12670.43121
783.338	13006.7823
783.528	13189.08195
783.717	13063.50191
783.906	13148.57422
784.096	13243.76453
784.285	12755.54656
784.474	12824.44206
784.663	12638.00357
784.853	12998.67918
785.042	13233.63837
785.231	13251.86538
785.42	13225.53737
785.61	13049.32237
785.799	12966.2659
785.988	12729.20242
786.177	12771.75785
786.366	12905.48744
786.555	12877.12254
786.744	13000.70497
786.933	12773.78423
787.122	12840.65183
787.312	12921.69549
787.501	12909.53948
787.69	13049.32237
787.879	12974.36934
788.068	12337.97142
788.257	12563.0087
788.445	12439.34963
788.634	12670.43121
788.823	12423.13025
789.012	12433.26741
789.201	12337.97142
789.39	12402.85542
789.579	11932.27785
789.768	12423.13025
789.957	11985.0354
790.145	12051.98914
790.334	11976.91921
790.523	12230.49159
790.712	12234.5478
790.9	12346.0823
791.089	12283.22003
791.278	12354.19308
791.467	12402.85542
791.655	12224.40723
791.844	12206.15375
792.033	12390.6902
792.221	11907.92637
792.41	11887.63255
792.599	11964.74468
792.787	12305.52677
792.976	12607.60126
793.164	12565.0357
793.353	12382.57992
793.541	12360.27608
793.73	12210.21013
793.918	12315.66591
794.107	12137.19075
794.295	12033.72988
794.484	11980.97732
794.672	11972.86106
794.861	11944.45316
795.049	11798.32985
795.238	11680.58724
795.426	11790.21061
795.614	11566.87621
795.803	11721.19147
795.991	11749.61234
796.179	11729.31189
796.368	11310.91815
796.556	11392.19144
796.744	11440.94782
796.932	11510.00984
797.121	11510.00984
797.309	11688.70837
797.497	11390.1598
797.685	11428.75925
797.874	11741.49226
798.062	11589.21457
798.25	11658.25339
798.438	11696.82936
798.626	11501.88547
798.814	11314.98219
799.002	11467.3552
799.19	11282.4687
799.378	11264.17872
799.566	11540.47488
799.755	11327.17409
799.943	11414.53881
800.131	11097.49777
800.318	11396.25469
800.506	11412.50728
800.694	11438.91642
800.882	11290.59732
801.07	11266.21098
801.258	11123.92755
801.446	11290.59732
801.634	10888.02699
801.822	11349.52495
802.01	11384.06483
802.197	11463.29263
802.385	10877.85546
802.573	11156.45402
802.761	11020.231
802.949	10981.59165
803.136	10865.64925
803.324	11103.59711
803.512	11107.66328
803.699	11225.56379
803.887	10755.77451
804.075	10883.95841
804.262	10861.58043
804.45	10995.82767
804.638	10672.32796
804.825	11066.99961
805.013	10851.40815
805.201	11449.07334
805.388	11117.82853
805.576	11064.96631
805.763	11069.0329
805.951	11018.19745
806.138	10981.59165
806.326	10855.4771
806.513	10715.0714
806.701	10739.49384
806.888	10969.38892
807.075	10981.59165
807.263	11087.33199
807.45	11164.58521
807.638	10829.02813
807.825	11089.36517
808.012	10959.21967
808.2	11083.2656
808.387	10959.21967
808.574	10908.36917
808.761	11101.56401
808.949	11050.73292
809.136	11294.66157
809.323	11125.96053
809.51	11127.9935
809.698	11005.99592
809.885	10782.22897
810.072	10942.94828
810.259	10843.27013
810.446	10942.94828
810.633	10784.26384
810.82	11280.43652
811.008	10989.72659
811.195	11127.9935
811.382	10692.68265
811.569	10967.35509
811.756	10900.23244
811.943	11294.66157
812.13	10863.61485
812.317	11042.59932
812.504	11058.86635
812.691	11294.66157
812.878	11062.933
813.064	11136.12529
813.251	10971.42274
813.438	11127.9935
813.625	10824.95888
813.812	10969.38892
813.999	11270.27547
814.186	11347.49311
814.372	10975.49034
814.559	11144.25691
814.746	10867.68365
814.933	11327.17409
815.12	10934.81231
815.306	11036.499
815.493	11184.91245
815.68	11371.87461
815.866	11056.83301
816.053	11363.7476
816.24	10949.05013
816.426	11335.30182
816.613	10955.15189
816.799	11355.62043
816.986	10904.30083
817.173	10977.52412
817.359	10761.87956
817.546	10965.32125
817.732	10851.40815
817.919	11136.12529
818.105	10808.68143
818.292	11247.92025
818.478	11154.42119
818.665	11105.6302
818.851	11093.43149
819.037	11125.96053
819.224	10859.54599
819.41	11166.61798
819.597	11018.19745
819.783	11107.66328
819.969	11284.50087
820.156	11036.499
820.342	11056.83301
820.528	10997.86134
820.714	11154.42119
820.901	11142.22402
821.087	10647.90074
821.273	11044.63274
821.459	11300.75786
821.646	11249.9526
821.832	11060.89968
822.018	10918.53984
822.204	10594.969
822.39	10796.47285
822.576	10708.96553
822.762	10829.02813
822.948	10639.75793
823.134	10761.87956
823.32	10491.11686
823.507	10733.38839
823.693	10890.06126
823.879	11097.49777
824.065	10930.74426
824.25	10790.3684
824.436	10940.9143
824.622	11085.2988
824.808	10792.40323
824.994	10745.59918
825.18	10550.17405
825.366	10717.10667
825.552	10548.13778
825.738	10875.82112
825.923	10507.40956
826.109	10639.75793
826.295	10523.70146
826.481	10985.65914
826.667	10745.59918
826.852	10694.71805
827.038	10448.34461
827.224	10346.48289
827.409	10116.15215
827.595	10409.641
827.781	9906.04921
827.966	10281.27406
828.152	10095.76043
828.338	10411.67815
828.523	10232.35842
828.709	10344.44532
828.894	10158.97021
829.08	10346.48289
829.266	10248.6645
829.451	10116.15215
829.637	9981.54063
829.822	10112.07392
830.008	9857.07108
830.193	10124.30844
830.378	10032.53714
830.564	10250.7027
830.749	10032.53714
830.935	10385.1942
831.12	10167.12534
831.305	10232.35842
831.491	9708.04299
831.676	9975.42044
831.861	10006.02007
832.047	9744.79713
832.232	9565.0627
832.417	9961.13951
832.602	9881.56121
832.788	10001.94031
832.973	10150.81486
833.158	10006.02007
833.343	9765.21396
833.528	10116.15215
833.714	9650.86001
833.899	9712.12703
834.084	9556.89008
834.269	9767.25556
834.454	9448.57887
834.639	9789.71217
834.824	9646.77505
835.009	9466.97451
835.194	9456.75487
835.379	9750.92234
835.564	9217.49847
835.749	9569.14891
835.934	9567.10581
836.119	9779.50485
836.304	9471.06225
836.489	9422.00507
836.674	9360.67043
836.859	9168.39201
837.044	9509.89261
837.228	9350.44656
837.413	9438.3585
837.598	9426.09353
837.783	9295.23052
837.968	9460.84277
838.152	9321.81753
838.337	9338.17737
838.522	9278.86788
838.707	9170.43831
838.891	9104.9483
839.076	9554.84689
839.261	9293.18525
839.445	9156.11387
839.63	8707.53008
839.815	8666.52046
839.999	8734.18238
840.184	8941.14566
840.368	8867.39764
840.553	9145.88161
840.737	8826.41648
840.922	9004.63247
841.106	8787.47769
841.291	8982.10683
841.475	8910.42012
841.66	8867.39764
841.844	8520.87607
842.029	8707.53008
842.213	8395.66871
842.397	8292.98619
842.582	8278.60675
842.766	8473.6751
842.951	8366.92251
843.135	8750.58225
843.319	8533.18772
843.504	8551.65391
843.688	8391.56234
843.872	8613.19686
844.056	8723.93186
844.241	8789.52727
844.425	8432.62256
844.609	8846.90796
844.793	8537.29145
844.977	8748.53233
845.161	8071.02385
845.346	8379.24277
845.53	8325.8499
845.714	8531.13582
845.898	8145.03712
846.082	8303.25664
846.266	8473.6751
846.45	8615.248
846.634	8179.97881
846.818	8420.30531
847.002	8379.24277
847.186	8401.82812
847.37	8266.28074
847.554	8282.71526
847.738	8110.08965
847.922	8013.43989
848.106	7817.94629
848.29	7970.24147
848.473	8071.02385
848.657	8206.69505
848.841	8083.3612
849.025	7980.52763
849.209	7894.108
849.392	8204.64007
849.576	8264.22634
849.76	8336.11878
849.944	8005.21231
850.127	8040.17728
850.311	7745.8752
850.495	7976.41323
850.678	7634.62929
850.862	7927.03404
851.046	7399.5725
851.229	7739.69649
851.413	7533.63034
851.596	7686.13969
851.78	7372.74994
851.964	7642.87185
852.147	7527.44506
852.331	7655.23504
852.514	7543.93871
852.698	7622.26483
852.881	7405.7618
853.065	7447.0188
853.248	7155.97028
853.431	7535.69206
853.615	7352.11469
853.798	7531.5686
853.982	7587.22801
854.165	7673.7784
854.348	7199.34568
854.532	7490.32932
854.715	7294.32436
854.898	7370.68651
855.081	7234.45193
855.265	7372.74994
855.448	7005.11265
855.631	7240.64649
855.814	7114.65127
855.997	7050.58915
856.181	6920.33191
856.364	7296.3886
856.547	7046.45537
856.73	7168.36425
856.913	6878.96166
857.096	6957.5574
857.279	7081.58963
857.462	7098.12116
857.645	6889.30508
857.828	7263.35818
858.011	6868.61768
858.194	6965.82873
858.377	6864.47993
858.56	6959.62527
858.743	6721.6717
858.926	6752.72622
859.109	6682.32857
859.292	7065.05667
859.475	6667.83164
859.658	6945.14972
859.841	6812.75037
860.023	6965.82873
860.206	6765.14659
860.389	6841.72068
860.572	6678.18671
860.755	6752.72622
860.937	6852.06613
861.12	6992.70808
861.303	6885.16778
861.486	6870.68653
861.668	6578.75433
861.851	6396.3232
862.034	6388.0266
862.216	6624.3341
862.399	6269.75947
862.581	6551.81558
862.764	6136.87766
862.947	6388.0266
863.129	6012.21357
863.312	6109.87429
863.494	6095.33237
863.677	6431.5796
863.859	6128.56935
864.042	6352.76189
864.224	6211.63549
864.406	6363.13456
864.589	6197.10163
864.771	6238.62391
864.954	6055.85563
865.136	6207.48308
865.318	5935.29512
865.501	6271.83498
865.683	6186.7196
865.865	6062.08937
866.048	6170.10712
866.23	6151.41629
866.412	5999.7425
866.594	6211.63549
866.777	5862.50472
866.959	5804.25158
867.141	5937.37442
867.323	5887.46468
867.505	6084.94458
867.687	6157.64677
867.869	5912.42125
868.052	6159.72356
868.234	5820.89722
868.416	6195.02527
868.598	5872.90511
868.78	5845.86285
868.962	5679.36113
869.144	5806.33237
869.326	5664.78504
869.508	5791.76636
869.69	5583.55425
869.872	5591.88727
870.054	5218.6166
870.236	5566.8871
870.417	5479.35978
870.599	5675.19665
870.781	5704.34602
870.963	5708.50983
871.145	5427.24047
871.327	5637.7121
871.508	5237.40234
871.69	5593.97046
871.872	5241.57669
872.054	5668.94976
872.235	5300.00777
872.417	5466.85249
872.599	5512.70842
872.78	5479.35978
872.962	5506.45601
873.144	5664.78504
873.325	5354.24878
873.507	5487.6975
873.689	5208.17927
873.87	5441.83536
874.052	5204.00417
874.233	5635.6294
874.415	5629.38116
874.596	5737.65391
874.778	5404.30333
874.959	5585.63754
875.141	5458.51382
875.322	5297.92126
875.503	5093.33017
875.685	5441.83536
875.866	5287.48837
876.048	5398.04725
876.229	5393.87641
876.41	5304.18072
876.592	5189.3906
876.773	5502.28761
876.954	5297.92126
877.136	5795.9282
877.317	5391.79096
877.498	5641.87743
877.679	5362.59214
877.86	5506.45601
878.042	5333.38873
878.223	5541.88353
878.404	5377.19212
878.585	5508.54017
878.766	5222.79137
878.947	5527.29655
879.128	5364.67792
879.309	5448.08996
879.49	5078.70797
879.672	5523.12863
879.853	5571.05403
880.034	5641.87743
880.215	5287.48837
880.396	5579.38761
880.576	5504.37182
880.757	5506.45601
880.938	5393.87641
881.119	5429.32553
881.3	5448.08996
881.481	5498.11913
881.662	5112.12847
881.843	5343.81904
882.023	5368.84942
882.204	5366.76368
882.385	5195.6537
882.566	5516.87657
882.747	5170.60004
882.927	5512.70842
883.108	5337.56092
883.289	5518.96062
883.469	5341.73303
883.65	5587.72081
883.831	5466.85249
884.011	5598.13678
884.192	5531.46438
884.373	5654.37284
884.553	5414.72965
884.734	5745.97994
884.914	5510.6243
885.095	5666.86741
885.275	5341.73303
885.456	5518.96062
885.636	5406.38864
885.817	5887.46468
885.997	5596.05363
886.178	5596.05363
886.358	5383.44891
886.538	5637.7121
886.719	5452.25957
886.899	5606.46913
887.08	5633.54668
887.26	5687.6898
887.44	5571.05403
887.621	5637.7121
887.801	5266.62082
887.981	5606.46913
888.161	5256.18618
888.342	5710.59171
888.522	5420.98517
888.702	5768.87458
888.882	5454.34435
889.062	5575.22086
889.242	5529.38048
889.423	5675.19665
889.603	5270.79452
889.783	5508.54017
889.963	5312.52633
890.143	5320.87157
890.323	5181.03947
890.503	5612.71815
890.683	5404.30333
890.863	5437.66551
891.043	5302.09426
891.223	5608.55216
891.403	5404.30333
891.583	5537.71594
891.763	5262.44704
891.943	5675.19665
892.122	5237.40234
892.302	5679.36113
892.482	5164.3361
892.662	5477.27529
892.842	5400.13263
893.022	5491.86622
893.201	5325.04405
893.381	5554.38574
893.561	5141.36654
893.741	5504.37182
893.92	5070.35192
894.1	5329.21643
894.28	5287.48837
894.459	5237.40234
894.639	4932.42369
894.819	4930.33309
894.998	4947.0572
895.178	5009.75947
895.357	4865.51333
895.537	5208.17927
895.716	5103.77391
895.896	5124.65963
896.075	4944.96676
896.255	5066.17376
896.434	4986.77104
896.614	5170.60004
896.793	4878.06081
896.973	5112.12847
897.152	4961.68958
897.331	5208.17927
897.511	4821.59068
897.69	5036.92401
897.87	5074.52999
898.049	4934.51426
898.228	5030.65561
898.407	5089.15252
898.587	4783.9347
898.766	5053.6387
898.945	4641.61259
899.124	4635.33128
899.304	4603.92169
899.483	4744.17874
899.662	4618.58012
899.841	4886.42533
900.02	4675.10952
900.199	4777.65799
900.378	4813.22332
900.557	4792.30333
900.737	4601.82754
900.916	4337.78762
901.095	4268.57711
901.274	4494.99633
901.453	4056.60716
901.632	4362.94925
901.811	4201.44161
901.989	4350.36883
902.168	4341.98144
902.347	4379.72194
902.526	4044.00817
902.705	4253.89308
902.884	3867.54505
903.063	4211.93297
903.242	4123.78916
903.42	4379.72194
903.599	4058.70692
903.778	4316.81721
903.957	3779.26041
904.135	4077.60382
904.314	3716.17879
904.493	3930.58401
904.672	3758.23515
904.85	4006.20674
905.029	3695.14771
905.207	3648.87261
905.386	3507.88783
905.565	3821.30506
905.743	3596.27613
905.922	3781.36283
906.1	3573.12997
906.279	3690.94127
906.457	3307.8445
906.636	3684.63145
906.814	3181.42104
906.993	3469.99723
907.171	3236.21194
907.35	3438.41727
907.528	3324.69636
907.707	3168.77541
907.885	3035.96143
908.063	3261.49625
908.242	3031.74409
908.42	3023.30923
908.598	2930.50979
908.777	3116.079
908.955	2848.23194
909.133	3221.46165
909.311	3094.99763
909.49	2955.8216
909.668	2928.40038
909.846	3219.35439
910.024	2814.47067
910.202	3172.99069
910.38	3006.43878
910.559	3145.59023
910.737	3094.99763
910.915	3307.8445
911.093	3168.77541
911.271	3269.92382
911.449	2896.75743
911.627	3099.21403
911.805	3122.4031
911.983	3259.38932
912.161	3097.10584
912.339	3154.02143
912.517	2987.45835
912.695	3132.94294
912.872	2985.34934
913.05	3189.85114
913.228	2970.58584
913.406	3082.34805
913.584	3132.94294
913.762	3309.95105
913.939	3059.15568
914.117	3333.12188
914.295	3054.93868
914.473	3231.99765
914.65	3063.37261
914.828	3238.31906
915.006	3215.13984
915.184	3307.8445
915.361	3031.74409
915.539	3217.24713
915.716	2763.82215
915.894	3147.69805
916.072	2886.20905
916.249	3158.23693
916.427	2810.25026
916.604	2936.83794
916.782	2755.37997
916.959	3128.72705
917.137	2879.87985
917.314	3069.6979
917.492	2852.45185
917.669	3029.6354
917.847	2742.7163
918.024	3016.98293
918.201	2917.85309
918.379	2827.13157
918.556	2641.39002
918.733	2953.71237
918.911	2886.20905
919.088	2848.23194
919.265	2440.76557
919.442	2516.80396
919.62	2499.90779
919.797	2618.1653
919.974	2523.13984
920.151	2702.61154
920.328	2421.75375
920.506	2548.48231
920.683	2624.49947
920.86	2611.83103
921.037	2607.60812
921.214	2732.16288
921.391	2375.27684
921.568	2831.35175
921.745	2419.64127
921.922	2514.69198
922.099	2316.11731
922.276	2599.16215
922.453	2394.29073
922.63	2662.5021
922.807	2345.69805
922.984	2294.98706
923.161	2180.86789
923.338	2512.57999
923.514	2176.64077
923.691	2305.5523
923.868	2170.30002
924.045	2265.40312
924.222	2018.10126
924.399	2202.003
924.575	2026.55773
924.752	2259.06347
924.929	2049.81245
925.105	2254.83699
925.282	1965.24597
925.459	2089.9777
925.635	1990.61701
925.812	2043.47034
925.989	2102.66091
926.165	2104.77476
926.342	1939.87406
926.518	1996.95962
926.695	1975.81735
926.871	2092.09159
927.048	1730.52754
927.224	1939.87406
927.401	1804.54402
927.577	1893.35674
927.754	1694.57509
927.93	1851.06603
928.107	1688.23045
928.283	1777.05275
928.459	1738.9868
928.636	1857.40976
928.812	1711.49401
928.988	1855.29519
929.165	1548.64279
929.341	1726.29789
929.517	1493.65183
929.693	1838.37843
929.87	1510.57218
930.046	1696.68997
930.222	1516.91731
930.398	1690.34533
930.574	1356.17389
930.751	1728.41272
930.927	1455.58092
931.103	1576.13799
931.279	1402.70467
931.455	1502.11201
931.631	1347.71381
931.807	1514.80227
931.983	1254.65476
932.159	1381.55426
932.335	1184.86372
932.511	1277.91913
932.687	1136.22377
932.863	1421.74009
933.039	1288.49394
933.215	1417.50999
933.391	1081.24227
933.566	1229.27581
933.742	1136.22377
933.918	1110.84729
934.094	1000.89111
934.27	1055.86733
934.445	890.95213
934.621	1163.71566
934.797	912.09269
934.973	1019.92089
935.148	768.3538
935.324	992.4336
935.5	736.65255
935.675	850.78731
935.851	810.62562
936.027	751.44618
936.202	563.39742
936.378	690.1617
936.553	540.16233
936.729	538.05013
936.904	611.98509
937.08	548.61126
937.255	426.12445
937.431	478.91436
937.606	445.1277
937.782	405.01123
937.957	388.12183
938.133	451.4624
938.308	453.574
938.483	373.34447
938.659	409.23374
938.834	341.68151
939.009	320.57505
939.185	345.90302
939.36	187.64696
939.535	413.45632
939.71	215.07028
939.886	316.35397
940.061	253.04654
940.236	293.13931
940.411	265.70668
940.586	257.26651
940.761	217.1799
940.937	236.16742
941.112	208.74152
941.287	278.36751
941.462	206.63197
941.637	223.5089
941.812	147.57295
941.987	257.26651
942.162	160.22709
942.337	170.77278
942.512	215.07028
942.687	221.39921
942.862	202.41294
943.037	240.38709
943.212	141.24617
943.386	181.31899
943.561	149.68192
943.736	183.42829
943.911	132.81075
944.086	166.55444
944.26	143.35507
944.435	107.50658
944.61	198.19399
944.785	225.6186
944.959	120.15828
945.134	130.70195
945.309	156.00896
945.483	153.89993
945.658	126.48442
945.833	96.96411
946.007	115.94096
946.182	139.13728
946.357	143.35507
946.531	145.464
946.706	193.97512
946.88	113.83233
947.055	172.88198
947.229	156.00896
947.404	147.57295
947.578	181.31899
947.752	191.86571
947.927	143.35507
948.101	215.07028
948.276	215.07028
948.45	168.6636
948.624	151.79091
948.799	105.39804
948.973	225.6186
949.147	139.13728
949.321	177.10045
949.496	126.48442
949.67	185.53762
949.844	219.28955
950.018	261.48656
950.193	124.37568
950.367	181.31899
950.541	128.59318
950.715	189.75633
950.889	272.03701
951.063	96.96411
951.237	172.88198
951.411	143.35507
951.585	191.86571
951.759	221.39921
951.933	206.63197
952.107	215.07028
952.281	217.1799
952.455	250.93658
952.629	196.08454
952.803	179.20971
952.977	181.31899
953.151	189.75633
953.325	193.97512
953.499	183.42829
953.672	164.4453
953.846	166.55444
954.02	143.35507
954.194	181.31899
954.368	179.20971
954.541	99.07256
954.715	215.07028
954.889	206.63197
955.062	191.86571
955.236	200.30345
955.41	200.30345
955.583	177.10045
955.757	240.38709
955.93	284.69817
956.104	158.11802
956.278	223.5089
956.451	217.1799
956.625	189.75633
956.798	231.94784
956.972	246.71673
957.145	204.52245
957.319	160.22709
957.492	208.74152
957.665	223.5089
957.839	219.28955
958.012	147.57295
958.185	234.05762
958.359	172.88198
958.532	134.91958
958.705	240.38709
958.879	71.66443
959.052	145.464
959.225	196.08454
959.398	236.16742
959.572	156.00896
959.745	86.42218
959.918	113.83233
960.091	172.88198
960.264	130.70195
960.438	162.33619
960.611	132.81075
960.784	174.9912
960.957	198.19399
961.13	174.9912
961.303	156.00896
961.476	130.70195
961.649	145.464
961.822	236.16742
961.995	231.94784
962.168	156.00896
962.341	149.68192
962.514	164.4453
962.686	147.57295
962.859	250.93658
963.032	177.10045
963.205	151.79091
963.378	191.86571
963.551	174.9912
963.723	183.42829
963.896	172.88198
964.069	115.94096
964.242	143.35507
964.414	139.13728
964.587	200.30345
964.76	181.31899
964.932	160.22709
965.105	172.88198
965.278	210.85109
965.45	183.42829
965.623	107.50658
965.795	219.28955
965.968	137.02842
966.14	134.91958
966.313	105.39804
966.485	179.20971
966.658	181.31899
966.83	193.97512
967.003	229.83807
967.175	122.26697
967.348	160.22709
967.52	80.0973
967.692	143.35507
967.865	217.1799
968.037	177.10045
968.209	69.55627
968.382	105.39804
968.554	225.6186
968.726	162.33619
968.898	96.96411
969.071	166.55444
969.243	107.50658
969.415	80.0973
969.587	124.37568
969.759	132.81075
969.932	61.12386
970.104	113.83233
970.276	77.98905
970.448	162.33619
970.62	99.07256
970.792	122.26697
970.964	99.07256
971.136	145.464
971.308	139.13728
971.48	172.88198
971.652	156.00896
971.824	101.18103
971.996	166.55444
972.168	96.96411
972.339	202.41294
972.511	75.88082
972.683	118.04961
972.855	69.55627
973.027	84.31387
973.199	122.26697
973.37	63.23193
973.542	149.68192
973.714	156.00896
973.886	103.28953
974.057	126.48442
974.229	143.35507
974.401	56.90779
974.572	84.31387
974.744	71.66443
974.915	145.464
975.087	132.81075
975.259	84.31387
975.43	109.61514
975.602	92.74727
975.773	124.37568
975.945	141.24617
976.116	88.53052
976.288	128.59318
976.459	139.13728
976.63	90.63889
976.802	82.20557
976.973	88.53052
977.145	63.23193
977.316	124.37568
977.487	84.31387
977.659	107.50658
977.83	92.74727
978.001	139.13728
978.172	73.77262
978.344	84.31387
978.515	96.96411
978.686	63.23193
978.857	166.55444
979.028	139.13728
979.2	153.89993
979.371	126.48442
979.542	77.98905
979.713	122.26697
979.884	61.12386
980.055	103.28953
980.226	88.53052
980.397	96.96411
980.568	96.96411
980.739	124.37568
980.91	71.66443
981.081	65.34002
981.252	46.36803
981.423	96.96411
981.594	82.20557
981.765	111.72373
981.936	84.31387
982.106	99.07256
982.277	118.04961
982.448	109.61514
982.619	-37.92881
982.79	120.15828
982.96	149.68192
983.131	-4.2147
983.302	46.36803
983.472	37.93663
983.643	54.79979
983.814	122.26697
983.984	48.47593
984.155	71.66443
984.326	44.26014
984.496	105.39804
984.667	94.85568
984.837	99.07256
985.008	56.90779
985.178	52.69182
985.349	107.50658
985.519	42.15228
985.69	59.01582
985.86	52.69182
986.031	96.96411
986.201	61.12386
986.371	137.02842
986.542	80.0973
986.712	115.94096
986.882	82.20557
987.053	-6.32202
987.223	61.12386
987.393	113.83233
987.563	75.88082
987.734	75.88082
987.904	77.98905
988.074	71.66443
988.244	75.88082
988.414	88.53052
988.585	103.28953
988.755	56.90779
988.925	109.61514
989.095	88.53052
989.265	99.07256
989.435	86.42218
989.605	92.74727
989.775	71.66443
989.945	77.98905
990.115	67.44814
990.285	77.98905
990.455	54.79979
990.625	4.2148
990.795	37.93663
990.965	4.2148
991.134	88.53052
991.304	46.36803
991.474	73.77262
991.644	37.93663
991.814	82.20557
991.984	50.58386
992.153	29.5056
992.323	71.66443
992.493	54.79979
992.662	-27.39383
992.832	37.93663
993.002	42.15228
993.171	88.53052
993.341	75.88082
993.511	-16.85823
993.68	96.96411
993.85	174.9912
994.019	27.39791
994.189	27.39791
994.358	42.15228
994.528	37.93663
994.697	92.74727
994.867	0
995.036	-8.42931
995.206	130.70195
995.375	14.75222
995.544	42.15228
995.714	48.47593
995.883	31.61332
996.052	113.83233
996.222	59.01582
996.391	71.66443
996.56	71.66443
996.73	8.4297
996.899	40.04444
997.068	-18.9654
997.237	-10.53658
997.406	29.5056
997.576	59.01582
997.745	-42.14263
997.914	10.53718
998.083	14.75222
998.252	82.20557
998.421	50.58386
998.59	63.23193
998.759	-27.39383
998.928	54.79979
999.097	21.07496
999.266	63.23193
999.435	8.4297
999.604	48.47593
999.773	54.79979
999.942	31.61332
1000.111	105.39804
1000.28	-16.85823
1000.448	25.29023
1000.617	21.07496
1000.786	-18.9654
1000.955	80.0973
1001.124	84.31387
1001.292	105.39804
1001.461	50.58386
1001.63	2.10739
1001.798	-63.21022
1001.967	156.00896
1002.136	46.36803
1002.304	48.47593
1002.473	65.34002
1002.642	4.2148
1002.81	40.04444
1002.979	14.75222
1003.147	16.85977
1003.316	14.75222
1003.484	54.79979
1003.653	67.44814
1003.821	42.15228
1003.99	88.53052
1004.158	42.15228
1004.327	52.69182
1004.495	71.66443
1004.663	12.64469
1004.832	18.96735
1005	59.01582
1005.168	23.18258
1005.337	42.15228
1005.505	42.15228
1005.673	27.39791
1005.842	25.29023
1006.01	63.23193
1006.178	56.90779
1006.346	-27.39383
1006.514	23.18258
1006.683	31.61332
1006.851	12.64469
1007.019	-12.64382
1007.187	-33.71489
1007.355	23.18258
1007.523	29.5056
1007.691	44.26014
1007.859	-27.39383
1008.027	65.34002
1008.195	50.58386
1008.363	25.29023
1008.531	37.93663
1008.699	35.82884
1008.867	-18.9654
1009.035	80.0973
1009.203	16.85977
1009.37	50.58386
1009.538	8.4297
1009.706	33.72107
1009.874	73.77262
1010.042	6.32224
1010.209	14.75222
1010.377	10.53718
1010.545	71.66443
1010.713	40.04444
1010.88	-25.28676
1011.048	16.85977
1011.216	-16.85823
1011.383	4.2148
1011.551	69.55627
1011.718	21.07496
1011.886	29.5056
1012.054	-12.64382
1012.221	35.82884
1012.389	6.32224
1012.556	-29.50088
1012.724	71.66443
1012.891	-58.9969
1013.058	21.07496
1013.226	37.93663
1013.393	0
1013.561	37.93663
1013.728	2.10739
1013.895	61.12386
1014.063	29.5056
1014.23	-6.32202
1014.397	-16.85823
1014.565	63.23193
1014.732	37.93663
1014.899	50.58386
1015.066	-16.85823
1015.233	-27.39383
1015.401	-54.78349
1015.568	50.58386
1015.735	77.98905
1015.902	-2.10736
1016.069	84.31387
1016.236	37.93663
1016.403	0
1016.57	44.26014
1016.737	-16.85823
1016.904	23.18258
1017.071	-52.67674
1017.238	-48.46317
1017.405	-12.64382
1017.572	23.18258
1017.739	52.69182
1017.906	4.2148
1018.073	-71.63655
1018.24	12.64469
1018.407	-27.39383
1018.573	-10.53658
1018.74	-4.2147
1018.907	-50.56997
1019.074	115.94096
1019.241	-37.92881
1019.407	25.29023
1019.574	33.72107
1019.741	65.34002
1019.907	67.44814
1020.074	37.93663
1020.241	21.07496
1020.407	50.58386
1020.574	122.26697
1020.74	31.61332
1020.907	-8.42931
1021.073	33.72107
1021.24	59.01582
1021.406	48.47593
1021.573	21.07496
1021.739	86.42218
1021.906	12.64469
1022.072	10.53718
1022.239	21.07496
1022.405	33.72107
1022.571	-40.03573
1022.738	56.90779
1022.904	54.79979
1023.07	29.5056
1023.237	-52.67674
1023.403	46.36803
1023.569	-2.10736
1023.735	-8.42931
1023.902	12.64469
1024.068	54.79979
1024.234	37.93663
1024.4	-4.2147
1024.566	21.07496
1024.732	16.85977
1024.898	10.53718
1025.065	0
1025.231	14.75222
1025.397	46.36803
1025.563	-25.28676
1025.729	113.83233
1025.895	44.26014
1026.061	-4.2147
1026.227	-16.85823
1026.392	63.23193
1026.558	-23.17966
1026.724	0
1026.89	73.77262
1027.056	61.12386
1027.222	-8.42931
1027.388	31.61332
1027.553	48.47593
1027.719	52.69182
1027.885	80.0973
1028.051	105.39804
1028.216	-16.85823
1028.382	12.64469
1028.548	8.4297
1028.713	23.18258
1028.879	50.58386
1029.045	-4.2147
1029.21	63.23193
1029.376	-71.63655
1029.541	35.82884
1029.707	-31.6079
1029.873	-16.85823
1030.038	46.36803
1030.204	-21.07254
1030.369	8.4297
1030.534	46.36803
1030.7	82.20557
1030.865	-12.64382
1031.031	-40.03573
1031.196	73.77262
1031.361	-27.39383
1031.527	-14.75104
1031.692	-46.35635
1031.857	-25.28676
1032.023	63.23193
1032.188	-48.46317
1032.353	-8.42931
1032.518	118.04961
1032.684	-44.2495
1032.849	-10.53658
1033.014	42.15228
1033.179	-25.28676
1033.344	21.07496
1033.509	-50.56997
1033.674	-14.75104
1033.839	-4.2147
1034.004	29.5056
1034.17	40.04444
1034.335	48.47593
1034.5	54.79979
1034.664	6.32224
1034.829	90.63889
1034.994	21.07496
1035.159	-40.03573
1035.324	-82.16888
1035.489	42.15228
1035.654	82.20557
1035.819	56.90779
1035.984	118.04961
1036.148	101.18103
1036.313	12.64469
1036.478	6.32224
1036.643	48.47593
1036.807	73.77262
1036.972	50.58386
1037.137	35.82884
1037.301	113.83233
1037.466	-16.85823
1037.631	61.12386
1037.795	-29.50088
1037.96	46.36803
1038.124	77.98905
1038.289	103.28953
1038.454	4.2148
1038.618	4.2148
1038.783	-12.64382
1038.947	96.96411
1039.111	31.61332
1039.276	21.07496
1039.44	-52.67674
1039.605	84.31387
1039.769	-8.42931
1039.933	-33.71489
1040.098	-37.92881
1040.262	12.64469
1040.426	8.4297
1040.591	27.39791
1040.755	40.04444
1040.919	80.0973
1041.083	52.69182
1041.248	-2.10736
1041.412	-54.78349
1041.576	54.79979
1041.74	21.07496
1041.904	4.2148
1042.068	25.29023
1042.232	8.4297
1042.397	-2.10736
1042.561	-10.53658
1042.725	18.96735
1042.889	-12.64382
1043.053	12.64469
1043.217	14.75222
1043.381	37.93663
1043.544	88.53052
1043.708	27.39791
1043.872	29.5056
1044.036	25.29023
1044.2	6.32224
1044.364	75.88082
1044.528	21.07496
1044.691	-4.2147
1044.855	6.32224
1045.019	-29.50088
1045.183	23.18258
1045.346	-27.39383
1045.51	0
1045.674	-2.10736
1045.837	33.72107
1046.001	73.77262
1046.165	-18.9654
1046.328	-16.85823
1046.492	16.85977
1046.655	-2.10736
1046.819	77.98905
1046.983	44.26014
1047.146	27.39791
1047.31	12.64469
1047.473	37.93663
1047.636	21.07496
1047.8	16.85977
1047.963	23.18258
1048.127	8.4297
1048.29	-4.2147
