Data from Scatter_Coeff_Baseline_USB4F045381__25__0025.txt Node

Date: Thu Feb 13 19:21:09 EST 2025
User: mmckonesweet
Spectrometer: USB4F04538
Trigger mode: 4
Integration Time (sec): 2.400000E-3
Scans to average: 1
Electric dark correction enabled: true
Nonlinearity correction enabled: true
Boxcar width: 0
XAxis mode: Wavelengths
Number of Pixels in Spectrum: 3648
>>>>>Begin Spectral Data<<<<<
345.52	-3.51226
345.736	-3.51226
345.952	-3.51226
346.168	-14.04863
346.384	-37.2265
346.6	80.80005
346.816	-35.11954
347.032	-58.29468
347.248	53.39447
347.464	-5.61958
347.68	-30.90556
347.896	-54.08124
348.112	-3.51226
348.328	-3.51226
348.544	19.66988
348.76	21.7775
348.975	15.45473
349.191	103.99236
349.407	36.53143
349.623	28.10047
349.839	-16.15583
350.055	85.01664
350.27	-70.93437
350.486	80.80005
350.702	0.70246
350.918	55.50246
351.133	-24.5844
351.349	-26.69148
351.565	63.93463
351.781	4.91728
351.996	-39.33343
352.212	2.80986
352.428	-66.72124
352.644	15.45473
352.859	-14.04863
353.075	82.90833
353.291	0.70246
353.506	7.02472
353.722	-39.33343
353.938	15.45473
354.153	17.5623
354.369	25.99279
354.584	-1.40491
354.8	13.34719
355.016	28.10047
355.231	34.42366
355.447	61.82655
355.662	85.01664
355.878	-3.51226
356.093	9.13219
356.309	30.20817
356.524	-9.83416
356.74	38.63923
356.955	-75.1474
357.171	30.20817
357.386	42.8549
357.602	17.5623
357.817	-18.26301
358.033	28.10047
358.248	15.45473
358.464	101.88386
358.679	-20.37016
358.895	36.53143
359.11	32.3159
359.325	-41.44034
359.541	70.25899
359.756	15.45473
359.972	63.93463
360.187	28.10047
360.402	47.07066
360.618	66.04272
360.833	25.99279
361.048	47.07066
361.264	38.63923
361.479	0.70246
361.694	55.50246
361.909	17.5623
362.125	-66.72124
362.34	-7.72688
362.555	32.3159
362.77	2.80986
362.986	74.47535
363.201	4.91728
363.416	-37.2265
363.631	-7.72688
363.847	-70.93437
364.062	-41.44034
364.277	13.34719
364.492	-24.5844
364.707	44.96277
364.922	-16.15583
365.138	-1.40491
365.353	-20.37016
365.568	-5.61958
365.783	0.70246
365.998	9.13219
366.213	40.74705
366.428	-39.33343
366.643	-22.47729
366.858	-83.57314
367.073	-14.04863
367.288	-41.44034
367.503	-3.51226
367.718	23.88513
367.933	-33.01256
368.148	-43.54722
368.363	59.7185
368.578	42.8549
368.793	-20.37016
369.008	0.70246
369.223	0.70246
369.438	30.20817
369.653	30.20817
369.868	-26.69148
370.083	30.20817
370.298	38.63923
370.513	17.5623
370.728	-64.61464
370.943	38.63923
371.157	-1.40491
371.372	-14.04863
371.587	9.13219
371.802	17.5623
372.017	13.34719
372.232	-18.26301
372.446	42.8549
372.661	-45.65407
372.876	-18.26301
373.091	47.07066
373.306	-37.2265
373.52	-3.51226
373.735	2.80986
373.95	2.80986
374.165	-54.08124
374.379	-16.15583
374.594	-66.72124
374.809	-30.90556
375.023	2.80986
375.238	51.28651
375.453	74.47535
375.667	-16.15583
375.882	-41.44034
376.097	55.50246
376.311	17.5623
376.526	38.63923
376.741	36.53143
376.955	-14.04863
377.17	51.28651
377.384	4.91728
377.599	34.42366
377.813	7.02472
378.028	9.13219
378.242	32.3159
378.457	30.20817
378.672	7.02472
378.886	-3.51226
379.101	-16.15583
379.315	13.34719
379.53	17.5623
379.744	-1.40491
379.958	-7.72688
380.173	47.07066
380.387	-7.72688
380.602	110.318
380.816	17.5623
381.031	-24.5844
381.245	13.34719
381.459	-41.44034
381.674	17.5623
381.888	-79.36032
382.103	59.7185
382.317	17.5623
382.531	9.13219
382.746	53.39447
382.96	-24.5844
383.174	-16.15583
383.388	-3.51226
383.603	-7.72688
383.817	40.74705
384.031	40.74705
384.246	-20.37016
384.46	68.15085
384.674	93.45007
384.888	30.20817
385.103	34.42366
385.317	-3.51226
385.531	68.15085
385.745	-18.26301
385.959	-47.7609
386.174	34.42366
386.388	-16.15583
386.602	76.58356
386.816	44.96277
387.03	36.53143
387.244	51.28651
387.458	-37.2265
387.672	36.53143
387.887	78.6918
388.101	9.13219
388.315	-7.72688
388.529	-16.15583
388.743	7.02472
388.957	30.20817
389.171	34.42366
389.385	19.66988
389.599	9.13219
389.813	-66.72124
390.027	17.5623
390.241	49.17857
390.455	-9.83416
390.669	-1.40491
390.883	19.66988
391.097	9.13219
391.311	49.17857
391.525	59.7185
391.738	19.66988
391.952	19.66988
392.166	17.5623
392.38	4.91728
392.594	-7.72688
392.808	-26.69148
393.022	78.6918
393.236	-11.94141
393.449	-14.04863
393.663	-37.2265
393.877	0.70246
394.091	40.74705
394.305	40.74705
394.518	85.01664
394.732	-41.44034
394.946	-47.7609
395.16	53.39447
395.373	-16.15583
395.587	17.5623
395.801	-26.69148
396.015	32.3159
396.228	38.63923
396.442	25.99279
396.656	70.25899
396.869	-3.51226
397.083	-22.47729
397.297	-3.51226
397.51	44.96277
397.724	-7.72688
397.938	-24.5844
398.151	-7.72688
398.365	-39.33343
398.578	-26.69148
398.792	-14.04863
399.005	-5.61958
399.219	-81.46674
399.433	17.5623
399.646	4.91728
399.86	38.63923
400.073	17.5623
400.287	47.07066
400.5	-20.37016
400.714	19.66988
400.927	61.82655
401.141	-22.47729
401.354	-20.37016
401.567	57.61047
401.781	-30.90556
401.994	42.8549
402.208	-66.72124
402.421	47.07066
402.635	36.53143
402.848	11.23968
403.061	44.96277
403.275	-16.15583
403.488	-16.15583
403.701	28.10047
403.915	-26.69148
404.128	-41.44034
404.341	21.7775
404.555	36.53143
404.768	-45.65407
404.981	-66.72124
405.195	11.23968
405.408	51.28651
405.621	34.42366
405.834	17.5623
406.048	44.96277
406.261	17.5623
406.474	-83.57314
406.687	-3.51226
406.9	59.7185
407.114	-3.51226
407.327	51.28651
407.54	11.23968
407.753	-16.15583
407.966	2.80986
408.179	-35.11954
408.392	-41.44034
408.605	9.13219
408.819	-49.86771
409.032	0.70246
409.245	-7.72688
409.458	53.39447
409.671	25.99279
409.884	40.74705
410.097	-94.10474
410.31	-14.04863
410.523	-7.72688
410.736	-7.72688
410.949	61.82655
411.162	36.53143
411.375	63.93463
411.588	-79.36032
411.801	11.23968
412.014	-20.37016
412.227	-33.01256
412.44	-28.79853
412.653	-49.86771
412.865	51.28651
413.078	47.07066
413.291	-22.47729
413.504	-28.79853
413.717	-22.47729
413.93	0.70246
414.143	57.61047
414.356	-51.97449
414.568	-3.51226
414.781	11.23968
414.994	49.17857
415.207	-11.94141
415.42	97.66692
415.632	-7.72688
415.845	13.34719
416.058	89.23331
416.271	34.42366
416.483	42.8549
416.696	59.7185
416.909	34.42366
417.121	21.7775
417.334	-62.50801
417.547	4.91728
417.759	55.50246
417.972	4.91728
418.185	25.99279
418.397	28.10047
418.61	-16.15583
418.823	19.66988
419.035	44.96277
419.248	-66.72124
419.46	-33.01256
419.673	72.36716
419.885	44.96277
420.098	32.3159
420.311	0.70246
420.523	91.34168
420.736	-26.69148
420.948	2.80986
421.161	0.70246
421.373	72.36716
421.586	-24.5844
421.798	47.07066
422.01	2.80986
422.223	30.20817
422.435	11.23968
422.648	44.96277
422.86	-11.94141
423.073	-39.33343
423.285	30.20817
423.497	-20.37016
423.71	23.88513
423.922	-20.37016
424.134	-16.15583
424.347	28.10047
424.559	-24.5844
424.771	11.23968
424.984	-47.7609
425.196	-20.37016
425.408	-11.94141
425.621	38.63923
425.833	25.99279
426.045	78.6918
426.257	17.5623
426.47	85.01664
426.682	17.5623
426.894	-11.94141
427.106	19.66988
427.318	51.28651
427.531	53.39447
427.743	38.63923
427.955	-7.72688
428.167	-24.5844
428.379	7.02472
428.591	2.80986
428.804	101.88386
429.016	-16.15583
429.228	51.28651
429.44	118.75249
429.652	-45.65407
429.864	25.99279
430.076	85.01664
430.288	-14.04863
430.5	-64.61464
430.712	4.91728
430.924	13.34719
431.136	49.17857
431.348	36.53143
431.56	89.23331
431.772	-28.79853
431.984	4.91728
432.196	15.45473
432.408	61.82655
432.62	38.63923
432.832	-11.94141
433.044	-1.40491
433.256	19.66988
433.468	0.70246
433.679	74.47535
433.891	57.61047
434.103	-1.40491
434.315	4.91728
434.527	21.7775
434.739	51.28651
434.95	-28.79853
435.162	38.63923
435.374	0.70246
435.586	82.90833
435.798	42.8549
436.009	17.5623
436.221	15.45473
436.433	11.23968
436.645	-41.44034
436.856	-16.15583
437.068	-7.72688
437.28	-60.40135
437.491	72.36716
437.703	51.28651
437.915	110.318
438.126	-16.15583
438.338	25.99279
438.55	-49.86771
438.761	-28.79853
438.973	70.25899
439.184	-22.47729
439.396	25.99279
439.608	-22.47729
439.819	-51.97449
440.031	9.13219
440.242	-22.47729
440.454	82.90833
440.665	-7.72688
440.877	-5.61958
441.088	59.7185
441.3	-58.29468
441.511	11.23968
441.723	30.20817
441.934	-33.01256
442.146	-83.57314
442.357	-28.79853
442.569	-24.5844
442.78	63.93463
442.991	32.3159
443.203	-11.94141
443.414	-5.61958
443.626	-28.79853
443.837	0.70246
444.048	28.10047
444.26	21.7775
444.471	36.53143
444.682	80.80005
444.894	-22.47729
445.105	2.80986
445.316	-7.72688
445.528	-7.72688
445.739	72.36716
445.95	89.23331
446.161	19.66988
446.373	28.10047
446.584	57.61047
446.795	21.7775
447.006	-62.50801
447.217	-16.15583
447.429	-9.83416
447.64	-30.90556
447.851	-47.7609
448.062	-30.90556
448.273	19.66988
448.484	-106.7418
448.695	11.23968
448.907	4.91728
449.118	-16.15583
449.329	47.07066
449.54	-24.5844
449.751	2.80986
449.962	-16.15583
450.173	44.96277
450.384	13.34719
450.595	57.61047
450.806	-22.47729
451.017	59.7185
451.228	42.8549
451.439	-28.79853
451.65	76.58356
451.861	-3.51226
452.072	17.5623
452.283	34.42366
452.494	9.13219
452.705	38.63923
452.915	-39.33343
453.126	53.39447
453.337	42.8549
453.548	61.82655
453.759	-51.97449
453.97	-26.69148
454.181	-33.01256
454.391	17.5623
454.602	-20.37016
454.813	51.28651
455.024	0.70246
455.235	2.80986
455.445	44.96277
455.656	-33.01256
455.867	-14.04863
456.078	44.96277
456.288	57.61047
456.499	-26.69148
456.71	13.34719
456.921	93.45007
457.131	-3.51226
457.342	7.02472
457.553	44.96277
457.763	13.34719
457.974	-49.86771
458.184	-37.2265
458.395	-3.51226
458.606	42.8549
458.816	11.23968
459.027	55.50246
459.237	57.61047
459.448	-16.15583
459.659	116.64384
459.869	36.53143
460.08	-3.51226
460.29	-47.7609
460.501	30.20817
460.711	47.07066
460.922	51.28651
461.132	11.23968
461.343	-37.2265
461.553	63.93463
461.764	19.66988
461.974	-49.86771
462.184	15.45473
462.395	11.23968
462.605	-49.86771
462.816	-18.26301
463.026	44.96277
463.236	7.02472
463.447	-33.01256
463.657	2.80986
463.867	-7.72688
464.078	21.7775
464.288	-9.83416
464.498	2.80986
464.709	28.10047
464.919	-58.29468
465.129	25.99279
465.339	25.99279
465.55	9.13219
465.76	13.34719
465.97	-24.5844
466.18	-20.37016
466.391	51.28651
466.601	-7.72688
466.811	-9.83416
467.021	17.5623
467.231	44.96277
467.441	-20.37016
467.651	59.7185
467.862	34.42366
468.072	44.96277
468.282	13.34719
468.492	40.74705
468.702	-5.61958
468.912	17.5623
469.122	28.10047
469.332	25.99279
469.542	108.20943
469.752	-41.44034
469.962	34.42366
470.172	7.02472
470.382	0.70246
470.592	-24.5844
470.802	47.07066
471.012	80.80005
471.222	30.20817
471.432	44.96277
471.642	-33.01256
471.852	47.07066
472.062	36.53143
472.272	7.02472
472.482	-35.11954
472.691	34.42366
472.901	36.53143
473.111	53.39447
473.321	72.36716
473.531	21.7775
473.741	34.42366
473.95	0.70246
474.16	-18.26301
474.37	-51.97449
474.58	63.93463
474.79	-11.94141
474.999	101.88386
475.209	-3.51226
475.419	-30.90556
475.628	17.5623
475.838	11.23968
476.048	63.93463
476.258	-41.44034
476.467	-24.5844
476.677	34.42366
476.886	-18.26301
477.096	34.42366
477.306	17.5623
477.515	-51.97449
477.725	2.80986
477.935	47.07066
478.144	-7.72688
478.354	21.7775
478.563	-33.01256
478.773	13.34719
478.982	-14.04863
479.192	-1.40491
479.401	59.7185
479.611	-28.79853
479.82	-24.5844
480.03	87.12496
480.239	7.02472
480.449	-3.51226
480.658	-43.54722
480.868	-56.18797
481.077	76.58356
481.287	19.66988
481.496	34.42366
481.705	30.20817
481.915	34.42366
482.124	4.91728
482.333	-45.65407
482.543	53.39447
482.752	19.66988
482.961	-16.15583
483.171	34.42366
483.38	-30.90556
483.589	34.42366
483.799	0.70246
484.008	47.07066
484.217	-3.51226
484.426	34.42366
484.636	32.3159
484.845	28.10047
485.054	25.99279
485.263	-9.83416
485.472	87.12496
485.682	-11.94141
485.891	15.45473
486.1	89.23331
486.309	-20.37016
486.518	-41.44034
486.727	-33.01256
486.936	-62.50801
487.146	25.99279
487.355	28.10047
487.564	72.36716
487.773	19.66988
487.982	53.39447
488.191	19.66988
488.4	17.5623
488.609	-37.2265
488.818	-16.15583
489.027	34.42366
489.236	-20.37016
489.445	-14.04863
489.654	25.99279
489.863	-47.7609
490.072	4.91728
490.281	-79.36032
490.49	89.23331
490.698	30.20817
490.907	-22.47729
491.116	55.50246
491.325	-7.72688
491.534	-77.25387
491.743	17.5623
491.952	-43.54722
492.16	25.99279
492.369	9.13219
492.578	70.25899
492.787	55.50246
492.996	15.45473
493.204	-24.5844
493.413	21.7775
493.622	25.99279
493.831	-28.79853
494.039	-47.7609
494.248	28.10047
494.457	44.96277
494.665	101.88386
494.874	9.13219
495.083	11.23968
495.291	-24.5844
495.5	21.7775
495.709	11.23968
495.917	72.36716
496.126	-33.01256
496.335	0.70246
496.543	23.88513
496.752	-20.37016
496.96	9.13219
497.169	28.10047
497.377	28.10047
497.586	51.28651
497.794	53.39447
498.003	47.07066
498.211	17.5623
498.42	-11.94141
498.628	-16.15583
498.837	0.70246
499.045	21.7775
499.254	63.93463
499.462	4.91728
499.671	51.28651
499.879	11.23968
500.087	-41.44034
500.296	-30.90556
500.504	25.99279
500.713	44.96277
500.921	13.34719
501.129	49.17857
501.338	-1.40491
501.546	-33.01256
501.754	93.45007
501.962	-30.90556
502.171	21.7775
502.379	-1.40491
502.587	17.5623
502.795	-7.72688
503.004	-18.26301
503.212	103.99236
503.42	11.23968
503.628	32.3159
503.837	70.25899
504.045	34.42366
504.253	13.34719
504.461	-108.84788
504.669	-24.5844
504.877	42.8549
505.085	-35.11954
505.294	-43.54722
505.502	-7.72688
505.71	55.50246
505.918	-20.37016
506.126	-16.15583
506.334	-45.65407
506.542	7.02472
506.75	34.42366
506.958	89.23331
507.166	-33.01256
507.374	9.13219
507.582	66.04272
507.79	80.80005
507.998	57.61047
508.206	32.3159
508.414	-28.79853
508.622	51.28651
508.83	-41.44034
509.037	13.34719
509.245	34.42366
509.453	-26.69148
509.661	-3.51226
509.869	4.91728
510.077	42.8549
510.285	-24.5844
510.492	-41.44034
510.7	-14.04863
510.908	-16.15583
511.116	15.45473
511.324	70.25899
511.531	0.70246
511.739	28.10047
511.947	0.70246
512.155	2.80986
512.362	-33.01256
512.57	2.80986
512.778	-49.86771
512.985	34.42366
513.193	34.42366
513.401	19.66988
513.608	-9.83416
513.816	13.34719
514.024	99.77538
514.231	36.53143
514.439	59.7185
514.646	51.28651
514.854	0.70246
515.061	76.58356
515.269	11.23968
515.477	51.28651
515.684	4.91728
515.892	-24.5844
516.099	9.13219
516.307	23.88513
516.514	-16.15583
516.722	34.42366
516.929	76.58356
517.136	2.80986
517.344	-7.72688
517.551	53.39447
517.759	59.7185
517.966	28.10047
518.173	47.07066
518.381	-7.72688
518.588	-43.54722
518.796	63.93463
519.003	-35.11954
519.21	-5.61958
519.418	25.99279
519.625	11.23968
519.832	-47.7609
520.039	7.02472
520.247	36.53143
520.454	108.20943
520.661	4.91728
520.868	17.5623
521.076	-41.44034
521.283	76.58356
521.49	34.42366
521.697	-5.61958
521.904	7.02472
522.112	7.02472
522.319	-45.65407
522.526	19.66988
522.733	-83.57314
522.94	25.99279
523.147	63.93463
523.354	32.3159
523.561	-66.72124
523.768	25.99279
523.975	-35.11954
524.183	17.5623
524.39	15.45473
524.597	-66.72124
524.804	51.28651
525.011	19.66988
525.218	11.23968
525.425	2.80986
525.632	59.7185
525.838	-14.04863
526.045	0.70246
526.252	0.70246
526.459	28.10047
526.666	74.47535
526.873	-5.61958
527.08	82.90833
527.287	13.34719
527.494	36.53143
527.701	-30.90556
527.907	30.20817
528.114	21.7775
528.321	36.53143
528.528	9.13219
528.735	55.50246
528.941	25.99279
529.148	25.99279
529.355	13.34719
529.562	36.53143
529.768	38.63923
529.975	11.23968
530.182	-3.51226
530.388	76.58356
530.595	28.10047
530.802	28.10047
531.008	-66.72124
531.215	13.34719
531.422	-33.01256
531.628	4.91728
531.835	32.3159
532.042	49.17857
532.248	4.91728
532.455	9.13219
532.661	17.5623
532.868	30.20817
533.074	17.5623
533.281	9.13219
533.487	47.07066
533.694	-22.47729
533.9	19.66988
534.107	-11.94141
534.313	-26.69148
534.52	17.5623
534.726	9.13219
534.933	25.99279
535.139	0.70246
535.345	15.45473
535.552	61.82655
535.758	47.07066
535.965	34.42366
536.171	-20.37016
536.377	101.88386
536.584	51.28651
536.79	-11.94141
536.996	-16.15583
537.203	44.96277
537.409	-37.2265
537.615	42.8549
537.821	25.99279
538.028	49.17857
538.234	13.34719
538.44	85.01664
538.646	34.42366
538.853	44.96277
539.059	34.42366
539.265	-56.18797
539.471	44.96277
539.677	-81.46674
539.883	17.5623
540.09	-60.40135
540.296	36.53143
540.502	-41.44034
540.708	44.96277
540.914	78.6918
541.12	-35.11954
541.326	-24.5844
541.532	59.7185
541.738	2.80986
541.944	4.91728
542.15	-26.69148
542.356	72.36716
542.562	61.82655
542.768	13.34719
542.974	25.99279
543.18	11.23968
543.386	0.70246
543.592	42.8549
543.798	-81.46674
544.004	-16.15583
544.21	99.77538
544.415	-22.47729
544.621	2.80986
544.827	55.50246
545.033	-3.51226
545.239	51.28651
545.445	7.02472
545.651	74.47535
545.856	53.39447
546.062	19.66988
546.268	2.80986
546.474	0.70246
546.679	34.42366
546.885	74.47535
547.091	122.96987
547.297	34.42366
547.502	9.13219
547.708	-7.72688
547.914	42.8549
548.119	34.42366
548.325	11.23968
548.531	103.99236
548.736	13.34719
548.942	19.66988
549.147	11.23968
549.353	42.8549
549.559	76.58356
549.764	-24.5844
549.97	61.82655
550.175	0.70246
550.381	63.93463
550.586	55.50246
550.792	-47.7609
550.997	19.66988
551.203	25.99279
551.408	76.58356
551.614	4.91728
551.819	-7.72688
552.025	0.70246
552.23	68.15085
552.435	110.318
552.641	51.28651
552.846	51.28651
553.052	-33.01256
553.257	47.07066
553.462	17.5623
553.668	2.80986
553.873	-11.94141
554.078	25.99279
554.283	11.23968
554.489	2.80986
554.694	42.8549
554.899	40.74705
555.105	-18.26301
555.31	51.28651
555.515	7.02472
555.72	19.66988
555.925	99.77538
556.131	13.34719
556.336	28.10047
556.541	25.99279
556.746	28.10047
556.951	25.99279
557.156	25.99279
557.361	7.02472
557.567	2.80986
557.772	47.07066
557.977	49.17857
558.182	-22.47729
558.387	-3.51226
558.592	-1.40491
558.797	-75.1474
559.002	47.07066
559.207	25.99279
559.412	55.50246
559.617	11.23968
559.822	99.77538
560.027	2.80986
560.232	87.12496
560.437	59.7185
560.642	36.53143
560.847	63.93463
561.051	-7.72688
561.256	47.07066
561.461	4.91728
561.666	25.99279
561.871	-39.33343
562.076	53.39447
562.281	55.50246
562.485	2.80986
562.69	34.42366
562.895	70.25899
563.1	-41.44034
563.305	40.74705
563.509	4.91728
563.714	74.47535
563.919	40.74705
564.123	13.34719
564.328	59.7185
564.533	13.34719
564.737	63.93463
564.942	28.10047
565.147	9.13219
565.351	51.28651
565.556	13.34719
565.761	-3.51226
565.965	51.28651
566.17	30.20817
566.374	4.91728
566.579	47.07066
566.784	135.62252
566.988	112.42659
567.193	68.15085
567.397	13.34719
567.602	25.99279
567.806	4.91728
568.011	-62.50801
568.215	23.88513
568.42	59.7185
568.624	2.80986
568.828	68.15085
569.033	55.50246
569.237	34.42366
569.442	9.13219
569.646	-24.5844
569.85	28.10047
570.055	25.99279
570.259	25.99279
570.463	51.28651
570.668	9.13219
570.872	80.80005
571.076	-16.15583
571.281	11.23968
571.485	42.8549
571.689	2.80986
571.893	42.8549
572.098	17.5623
572.302	34.42366
572.506	53.39447
572.71	42.8549
572.914	59.7185
573.119	47.07066
573.323	-14.04863
573.527	-14.04863
573.731	-20.37016
573.935	137.73137
574.139	42.8549
574.343	-24.5844
574.547	68.15085
574.751	34.42366
574.955	-45.65407
575.159	30.20817
575.364	13.34719
575.568	32.3159
575.772	66.04272
575.976	21.7775
576.18	106.10089
576.383	47.07066
576.587	30.20817
576.791	38.63923
576.995	-3.51226
577.199	-22.47729
577.403	40.74705
577.607	36.53143
577.811	78.6918
578.015	72.36716
578.219	25.99279
578.422	38.63923
578.626	-33.01256
578.83	30.20817
579.034	34.42366
579.238	36.53143
579.442	95.55848
579.645	30.20817
579.849	9.13219
580.053	95.55848
580.257	55.50246
580.46	13.34719
580.664	70.25899
580.868	59.7185
581.071	38.63923
581.275	55.50246
581.479	-28.79853
581.682	0.70246
581.886	7.02472
582.09	114.5352
582.293	66.04272
582.497	21.7775
582.7	-24.5844
582.904	34.42366
583.107	-9.83416
583.311	42.8549
583.515	42.8549
583.718	-14.04863
583.922	-22.47729
584.125	120.86117
584.329	101.88386
584.532	55.50246
584.735	25.99279
584.939	42.8549
585.142	19.66988
585.346	25.99279
585.549	-5.61958
585.753	-3.51226
585.956	42.8549
586.159	70.25899
586.363	34.42366
586.566	51.28651
586.769	53.39447
586.973	55.50246
587.176	66.04272
587.379	66.04272
587.582	-16.15583
587.786	152.49392
587.989	32.3159
588.192	21.7775
588.395	30.20817
588.599	44.96277
588.802	76.58356
589.005	30.20817
589.208	25.99279
589.411	4.91728
589.615	57.61047
589.818	59.7185
590.021	40.74705
590.224	36.53143
590.427	55.50246
590.63	21.7775
590.833	7.02472
591.036	30.20817
591.239	51.28651
591.442	15.45473
591.645	152.49392
591.848	47.07066
592.051	82.90833
592.254	53.39447
592.457	30.20817
592.66	53.39447
592.863	25.99279
593.066	97.66692
593.269	101.88386
593.472	36.53143
593.675	42.8549
593.878	55.50246
594.081	44.96277
594.284	-33.01256
594.486	80.80005
594.689	-3.51226
594.892	55.50246
595.095	112.42659
595.298	80.80005
595.5	78.6918
595.703	70.25899
595.906	42.8549
596.109	57.61047
596.311	23.88513
596.514	70.25899
596.717	76.58356
596.92	68.15085
597.122	19.66988
597.325	34.42366
597.528	38.63923
597.73	68.15085
597.933	91.34168
598.136	19.66988
598.338	114.5352
598.541	42.8549
598.743	103.99236
598.946	49.17857
599.148	25.99279
599.351	25.99279
599.554	25.99279
599.756	28.10047
599.959	66.04272
600.161	9.13219
600.363	42.8549
600.566	15.45473
600.768	66.04272
600.971	59.7185
601.173	40.74705
601.376	-7.72688
601.578	34.42366
601.78	42.8549
601.983	78.6918
602.185	2.80986
602.388	66.04272
602.59	59.7185
602.792	-33.01256
602.995	36.53143
603.197	82.90833
603.399	42.8549
603.601	59.7185
603.804	34.42366
604.006	91.34168
604.208	57.61047
604.41	76.58356
604.613	0.70246
604.815	51.28651
605.017	68.15085
605.219	68.15085
605.421	7.02472
605.623	17.5623
605.826	72.36716
606.028	112.42659
606.23	68.15085
606.432	55.50246
606.634	42.8549
606.836	-16.15583
607.038	110.318
607.24	51.28651
607.442	85.01664
607.644	78.6918
607.846	34.42366
608.048	11.23968
608.25	15.45473
608.452	53.39447
608.654	106.10089
608.856	38.63923
609.058	70.25899
609.26	47.07066
609.462	78.6918
609.664	59.7185
609.866	28.10047
610.067	106.10089
610.269	42.8549
610.471	61.82655
610.673	59.7185
610.875	68.15085
611.077	30.20817
611.278	55.50246
611.48	76.58356
611.682	19.66988
611.884	49.17857
612.085	63.93463
612.287	85.01664
612.489	-28.79853
612.69	103.99236
612.892	47.07066
613.094	93.45007
613.295	93.45007
613.497	-9.83416
613.699	70.25899
613.9	68.15085
614.102	97.66692
614.304	122.96987
614.505	66.04272
614.707	51.28651
614.908	42.8549
615.11	72.36716
615.311	42.8549
615.513	-24.5844
615.714	25.99279
615.916	70.25899
616.117	116.64384
616.319	59.7185
616.52	120.86117
616.722	87.12496
616.923	38.63923
617.124	13.34719
617.326	30.20817
617.527	122.96987
617.729	110.318
617.93	101.88386
618.131	51.28651
618.333	101.88386
618.534	114.5352
618.735	0.70246
618.937	28.10047
619.138	133.51369
619.339	139.84024
619.54	38.63923
619.742	25.99279
619.943	40.74705
620.144	152.49392
620.345	89.23331
620.546	82.90833
620.748	101.88386
620.949	17.5623
621.15	66.04272
621.351	63.93463
621.552	32.3159
621.753	78.6918
621.954	72.36716
622.155	89.23331
622.356	53.39447
622.558	42.8549
622.759	78.6918
622.96	118.75249
623.161	47.07066
623.362	55.50246
623.563	74.47535
623.764	34.42366
623.965	28.10047
624.166	118.75249
624.366	66.04272
624.567	89.23331
624.768	87.12496
624.969	85.01664
625.17	63.93463
625.371	99.77538
625.572	78.6918
625.773	61.82655
625.973	87.12496
626.174	76.58356
626.375	51.28651
626.576	9.13219
626.777	47.07066
626.977	103.99236
627.178	120.86117
627.379	49.17857
627.58	93.45007
627.78	42.8549
627.981	89.23331
628.182	137.73137
628.382	49.17857
628.583	34.42366
628.784	66.04272
628.984	76.58356
629.185	87.12496
629.386	51.28651
629.586	93.45007
629.787	85.01664
629.987	103.99236
630.188	80.80005
630.388	-33.01256
630.589	133.51369
630.79	87.12496
630.99	106.10089
631.191	160.93012
631.391	118.75249
631.591	82.90833
631.792	63.93463
631.992	150.38492
632.193	61.82655
632.393	114.5352
632.594	103.99236
632.794	85.01664
632.994	120.86117
633.195	13.34719
633.395	89.23331
633.595	103.99236
633.796	42.8549
633.996	194.67826
634.196	97.66692
634.397	76.58356
634.597	112.42659
634.797	114.5352
634.997	91.34168
635.198	78.6918
635.398	76.58356
635.598	53.39447
635.798	72.36716
635.998	63.93463
636.199	114.5352
636.399	93.45007
636.599	139.84024
636.799	122.96987
636.999	93.45007
637.199	38.63923
637.399	129.2961
637.599	17.5623
637.799	144.05805
637.999	139.84024
638.199	91.34168
638.399	34.42366
638.599	114.5352
638.799	85.01664
638.999	53.39447
639.199	87.12496
639.399	152.49392
639.599	146.16698
639.799	63.93463
639.999	169.36666
640.199	68.15085
640.399	59.7185
640.599	95.55848
640.799	110.318
640.998	120.86117
641.198	131.40488
641.398	152.49392
641.598	106.10089
641.798	101.88386
641.997	131.40488
642.197	51.28651
642.397	101.88386
642.597	165.14835
642.796	85.01664
642.996	173.58505
643.196	144.05805
643.395	150.38492
643.595	131.40488
643.795	85.01664
643.994	148.27594
644.194	99.77538
644.394	110.318
644.593	85.01664
644.793	160.93012
644.992	148.27594
645.192	154.60294
645.392	137.73137
645.591	114.5352
645.791	97.66692
645.99	120.86117
646.19	97.66692
646.389	68.15085
646.589	101.88386
646.788	91.34168
646.987	68.15085
647.187	127.18734
647.386	131.40488
647.586	146.16698
647.785	144.05805
647.984	25.99279
648.184	114.5352
648.383	85.01664
648.582	194.67826
648.782	110.318
648.981	169.36666
649.18	97.66692
649.38	89.23331
649.579	120.86117
649.778	160.93012
649.977	118.75249
650.177	95.55848
650.376	80.80005
650.575	262.18991
650.774	144.05805
650.973	118.75249
651.173	160.93012
651.372	87.12496
651.571	144.05805
651.77	120.86117
651.969	116.64384
652.168	152.49392
652.367	160.93012
652.566	137.73137
652.765	97.66692
652.964	129.2961
653.163	184.1314
653.362	203.11611
653.561	148.27594
653.76	127.18734
653.959	68.15085
654.158	160.93012
654.357	125.07859
654.556	36.53143
654.755	154.60294
654.954	103.99236
655.153	131.40488
655.352	114.5352
655.551	186.24073
655.749	194.67826
655.948	44.96277
656.147	114.5352
656.346	165.14835
656.545	93.45007
656.743	66.04272
656.942	179.9128
657.141	110.318
657.34	160.93012
657.538	167.25749
657.737	87.12496
657.936	118.75249
658.135	148.27594
658.333	80.80005
658.532	93.45007
658.731	169.36666
658.929	148.27594
659.128	99.77538
659.326	120.86117
659.525	152.49392
659.724	165.14835
659.922	177.80353
660.121	127.18734
660.319	211.55428
660.518	135.62252
660.716	148.27594
660.915	85.01664
661.113	194.67826
661.312	82.90833
661.51	110.318
661.709	120.86117
661.907	156.71198
662.105	85.01664
662.304	137.73137
662.502	169.36666
662.701	177.80353
662.899	232.6511
663.097	152.49392
663.296	169.36666
663.494	188.35008
663.692	249.52996
663.891	224.21213
664.089	186.24073
664.287	146.16698
664.485	97.66692
664.684	154.60294
664.882	177.80353
665.08	122.96987
665.278	165.14835
665.476	146.16698
665.675	146.16698
665.873	148.27594
666.071	120.86117
666.269	205.22562
666.467	101.88386
666.665	219.99277
666.863	129.2961
667.061	122.96987
667.259	173.58505
667.457	131.40488
667.655	146.16698
667.853	224.21213
668.051	175.69428
668.249	169.36666
668.447	219.99277
668.645	169.36666
668.843	144.05805
669.041	160.93012
669.239	152.49392
669.437	150.38492
669.635	177.80353
669.833	156.71198
670.031	177.80353
670.229	243.20024
670.426	201.00661
670.624	182.02209
670.822	179.9128
671.02	177.80353
671.218	114.5352
671.415	173.58505
671.613	211.55428
671.811	184.1314
672.009	196.78769
672.206	215.77348
672.404	160.93012
672.602	213.66387
672.799	182.02209
672.997	249.52996
673.195	156.71198
673.392	156.71198
673.59	201.00661
673.788	190.45945
673.985	169.36666
674.183	205.22562
674.38	110.318
674.578	190.45945
674.775	82.90833
674.973	154.60294
675.17	163.03922
675.368	165.14835
675.565	135.62252
675.763	127.18734
675.96	209.44471
676.158	222.10244
676.355	154.60294
676.553	163.03922
676.75	146.16698
676.947	236.87069
677.145	173.58505
677.342	207.33515
677.539	114.5352
677.737	127.18734
677.934	169.36666
678.131	186.24073
678.329	144.05805
678.526	146.16698
678.723	129.2961
678.92	222.10244
679.118	177.80353
679.315	203.11611
679.512	99.77538
679.709	262.18991
679.906	163.03922
680.104	173.58505
680.301	129.2961
680.498	257.96985
680.695	177.80353
680.892	230.54133
681.089	238.98052
681.286	165.14835
681.483	177.80353
681.68	169.36666
681.877	198.89714
682.075	146.16698
682.272	74.47535
682.469	203.11611
682.665	177.80353
682.862	160.93012
683.059	260.07987
683.256	179.9128
683.453	120.86117
683.65	211.55428
683.847	215.77348
684.044	215.77348
684.241	171.47585
684.438	215.77348
684.635	203.11611
684.831	228.43158
685.028	177.80353
685.225	116.64384
685.422	213.66387
685.619	219.99277
685.815	152.49392
686.012	215.77348
686.209	95.55848
686.405	276.96072
686.602	158.82104
686.799	251.6399
686.996	179.9128
687.192	144.05805
687.389	173.58505
687.586	228.43158
687.782	171.47585
687.979	154.60294
688.175	245.31013
688.372	253.74986
688.568	122.96987
688.765	184.1314
688.962	144.05805
689.158	150.38492
689.355	196.78769
689.551	171.47585
689.748	179.9128
689.944	228.43158
690.14	224.21213
690.337	160.93012
690.533	238.98052
690.73	213.66387
690.926	205.22562
691.123	249.52996
691.319	194.67826
691.515	131.40488
691.712	158.82104
691.908	114.5352
692.104	188.35008
692.301	203.11611
692.497	80.80005
692.693	196.78769
692.889	156.71198
693.086	209.44471
693.282	127.18734
693.478	236.87069
693.674	217.88312
693.87	207.33515
694.067	186.24073
694.263	97.66692
694.459	190.45945
694.655	188.35008
694.851	173.58505
695.047	224.21213
695.243	175.69428
695.439	211.55428
695.635	173.58505
695.831	228.43158
696.027	211.55428
696.224	241.09037
696.42	135.62252
696.615	186.24073
696.811	165.14835
697.007	198.89714
697.203	236.87069
697.399	207.33515
697.595	163.03922
697.791	247.42003
697.987	177.80353
698.183	177.80353
698.379	141.94913
698.575	179.9128
698.77	190.45945
698.966	211.55428
699.162	238.98052
699.358	205.22562
699.554	160.93012
699.749	228.43158
699.945	203.11611
700.141	165.14835
700.337	165.14835
700.532	177.80353
700.728	228.43158
700.924	219.99277
701.119	213.66387
701.315	122.96987
701.511	203.11611
701.706	144.05805
701.902	167.25749
702.097	205.22562
702.293	163.03922
702.489	194.67826
702.684	135.62252
702.88	211.55428
703.075	165.14835
703.271	203.11611
703.466	236.87069
703.662	253.74986
703.857	184.1314
704.053	156.71198
704.248	264.29997
704.443	175.69428
704.639	228.43158
704.834	241.09037
705.03	213.66387
705.225	238.98052
705.42	173.58505
705.616	196.78769
705.811	230.54133
706.006	219.99277
706.202	247.42003
706.397	270.63026
706.592	219.99277
706.787	131.40488
706.983	163.03922
707.178	175.69428
707.373	186.24073
707.568	251.6399
707.763	228.43158
707.959	270.63026
708.154	234.76089
708.349	203.11611
708.544	262.18991
708.739	209.44471
708.934	234.76089
709.129	165.14835
709.324	211.55428
709.519	173.58505
709.714	236.87069
709.909	188.35008
710.104	198.89714
710.299	279.07091
710.494	245.31013
710.689	270.63026
710.884	152.49392
711.079	245.31013
711.274	156.71198
711.469	232.6511
711.664	219.99277
711.859	173.58505
712.054	253.74986
712.249	257.96985
712.443	281.18111
712.638	207.33515
712.833	203.11611
713.028	219.99277
713.223	198.89714
713.417	253.74986
713.612	295.95309
713.807	287.51185
714.002	228.43158
714.196	298.06345
714.391	213.66387
714.586	266.41005
714.78	219.99277
714.975	238.98052
715.17	135.62252
715.364	262.18991
715.559	196.78769
715.754	230.54133
715.948	165.14835
716.143	287.51185
716.337	241.09037
716.532	179.9128
716.726	154.60294
716.921	249.52996
717.115	182.02209
717.31	257.96985
717.504	245.31013
717.699	148.27594
717.893	194.67826
718.088	213.66387
718.282	255.85985
718.476	260.07987
718.671	144.05805
718.865	203.11611
719.059	207.33515
719.254	251.6399
719.448	173.58505
719.642	314.94696
719.837	158.82104
720.031	190.45945
720.225	131.40488
720.419	182.02209
720.614	238.98052
720.808	177.80353
721.002	224.21213
721.196	281.18111
721.39	179.9128
721.585	238.98052
721.779	146.16698
721.973	224.21213
722.167	196.78769
722.361	177.80353
722.555	182.02209
722.749	150.38492
722.943	279.07091
723.137	279.07091
723.331	177.80353
723.525	194.67826
723.719	144.05805
723.913	260.07987
724.107	236.87069
724.301	222.10244
724.495	232.6511
724.689	182.02209
724.883	163.03922
725.077	243.20024
725.271	238.98052
725.465	245.31013
725.659	179.9128
725.853	262.18991
726.046	236.87069
726.24	283.29134
726.434	236.87069
726.628	238.98052
726.822	203.11611
727.015	300.17382
727.209	160.93012
727.403	228.43158
727.596	198.89714
727.79	213.66387
727.984	243.20024
728.177	213.66387
728.371	215.77348
728.565	222.10244
728.758	228.43158
728.952	295.95309
729.146	179.9128
729.339	253.74986
729.533	260.07987
729.726	245.31013
729.92	228.43158
730.113	211.55428
730.307	171.47585
730.5	219.99277
730.694	137.73137
730.887	228.43158
731.081	190.45945
731.274	196.78769
731.468	211.55428
731.661	293.84276
731.854	251.6399
732.048	228.43158
732.241	219.99277
732.435	213.66387
732.628	234.76089
732.821	262.18991
733.014	194.67826
733.208	236.87069
733.401	179.9128
733.594	245.31013
733.788	228.43158
733.981	272.74039
734.174	224.21213
734.367	266.41005
734.56	241.09037
734.754	245.31013
734.947	289.62213
735.14	249.52996
735.333	173.58505
735.526	232.6511
735.719	268.52014
735.912	279.07091
736.105	152.49392
736.298	266.41005
736.491	201.00661
736.684	177.80353
736.877	209.44471
737.07	217.88312
737.263	249.52996
737.456	209.44471
737.649	238.98052
737.842	255.85985
738.035	245.31013
738.228	192.56884
738.421	188.35008
738.614	165.14835
738.807	133.51369
739	190.45945
739.192	224.21213
739.385	211.55428
739.578	287.51185
739.771	190.45945
739.964	264.29997
740.156	329.72097
740.349	211.55428
740.542	186.24073
740.735	266.41005
740.927	152.49392
741.12	192.56884
741.313	226.32184
741.505	245.31013
741.698	186.24073
741.891	207.33515
742.083	224.21213
742.276	255.85985
742.468	219.99277
742.661	118.75249
742.854	247.42003
743.046	219.99277
743.239	262.18991
743.431	196.78769
743.624	213.66387
743.816	262.18991
744.009	300.17382
744.201	228.43158
744.393	340.27436
744.586	173.58505
744.778	245.31013
744.971	219.99277
745.163	228.43158
745.355	287.51185
745.548	319.16801
745.74	219.99277
745.932	207.33515
746.125	169.36666
746.317	308.61551
746.509	224.21213
746.702	217.88312
746.894	175.69428
747.086	196.78769
747.278	270.63026
747.471	182.02209
747.663	251.6399
747.855	215.77348
748.047	270.63026
748.239	281.18111
748.431	163.03922
748.623	255.85985
748.815	228.43158
749.008	272.74039
749.2	222.10244
749.392	186.24073
749.584	255.85985
749.776	198.89714
749.968	163.03922
750.16	186.24073
750.352	158.82104
750.544	236.87069
750.736	251.6399
750.928	253.74986
751.12	95.55848
751.311	236.87069
751.503	283.29134
751.695	198.89714
751.887	228.43158
752.079	232.6511
752.271	188.35008
752.463	160.93012
752.654	279.07091
752.846	264.29997
753.038	211.55428
753.23	148.27594
753.421	203.11611
753.613	194.67826
753.805	207.33515
753.997	188.35008
754.188	283.29134
754.38	234.76089
754.572	146.16698
754.763	156.71198
754.955	169.36666
755.146	266.41005
755.338	270.63026
755.53	230.54133
755.721	211.55428
755.913	262.18991
756.104	238.98052
756.296	238.98052
756.487	175.69428
756.679	253.74986
756.87	205.22562
757.062	228.43158
757.253	236.87069
757.445	283.29134
757.636	257.96985
757.827	266.41005
758.019	232.6511
758.21	270.63026
758.401	188.35008
758.593	179.9128
758.784	222.10244
758.975	253.74986
759.167	184.1314
759.358	276.96072
759.549	150.38492
759.74	279.07091
759.932	270.63026
760.123	255.85985
760.314	169.36666
760.505	270.63026
760.696	194.67826
760.888	215.77348
761.079	179.9128
761.27	209.44471
761.461	205.22562
761.652	251.6399
761.843	236.87069
762.034	222.10244
762.225	144.05805
762.416	238.98052
762.607	211.55428
762.798	234.76089
762.989	144.05805
763.18	257.96985
763.371	177.80353
763.562	213.66387
763.753	186.24073
763.944	213.66387
764.135	175.69428
764.326	298.06345
764.517	182.02209
764.708	302.28422
764.899	238.98052
765.089	198.89714
765.28	156.71198
765.471	175.69428
765.662	213.66387
765.853	213.66387
766.043	255.85985
766.234	215.77348
766.425	141.94913
766.615	207.33515
766.806	152.49392
766.997	148.27594
767.187	144.05805
767.378	262.18991
767.569	213.66387
767.759	144.05805
767.95	211.55428
768.141	249.52996
768.331	219.99277
768.522	251.6399
768.712	169.36666
768.903	226.32184
769.093	165.14835
769.284	211.55428
769.474	279.07091
769.665	213.66387
769.855	186.24073
770.046	228.43158
770.236	194.67826
770.426	114.5352
770.617	234.76089
770.807	186.24073
770.998	61.82655
771.188	194.67826
771.378	165.14835
771.569	169.36666
771.759	118.75249
771.949	190.45945
772.139	283.29134
772.33	186.24073
772.52	234.76089
772.71	243.20024
772.9	59.7185
773.09	190.45945
773.281	95.55848
773.471	177.80353
773.661	241.09037
773.851	120.86117
774.041	219.99277
774.231	169.36666
774.421	232.6511
774.611	232.6511
774.802	173.58505
774.992	194.67826
775.182	190.45945
775.372	152.49392
775.562	224.21213
775.752	211.55428
775.942	177.80353
776.131	150.38492
776.321	169.36666
776.511	213.66387
776.701	182.02209
776.891	175.69428
777.081	203.11611
777.271	160.93012
777.461	236.87069
777.651	177.80353
777.84	257.96985
778.03	171.47585
778.22	78.6918
778.41	135.62252
778.599	179.9128
778.789	203.11611
778.979	120.86117
779.169	228.43158
779.358	192.56884
779.548	135.62252
779.738	118.75249
779.927	114.5352
780.117	156.71198
780.307	173.58505
780.496	177.80353
780.686	245.31013
780.875	150.38492
781.065	169.36666
781.254	251.6399
781.444	270.63026
781.633	169.36666
781.823	165.14835
782.012	169.36666
782.202	120.86117
782.391	169.36666
782.581	152.49392
782.77	186.24073
782.96	127.18734
783.149	182.02209
783.338	257.96985
783.528	182.02209
783.717	224.21213
783.906	148.27594
784.096	160.93012
784.285	213.66387
784.474	93.45007
784.663	230.54133
784.853	203.11611
785.042	139.84024
785.231	205.22562
785.42	116.64384
785.61	182.02209
785.799	129.2961
785.988	186.24073
786.177	165.14835
786.366	129.2961
786.555	219.99277
786.744	160.93012
786.933	171.47585
787.122	114.5352
787.312	255.85985
787.501	228.43158
787.69	144.05805
787.879	148.27594
788.068	146.16698
788.257	106.10089
788.445	177.80353
788.634	169.36666
788.823	165.14835
789.012	146.16698
789.201	82.90833
789.39	253.74986
789.579	99.77538
789.768	213.66387
789.957	63.93463
790.145	108.20943
790.334	122.96987
790.523	203.11611
790.712	137.73137
790.9	135.62252
791.089	156.71198
791.278	78.6918
791.467	63.93463
791.655	169.36666
791.844	228.43158
792.033	148.27594
792.221	234.76089
792.41	171.47585
792.599	91.34168
792.787	156.71198
792.976	129.2961
793.164	203.11611
793.353	203.11611
793.541	112.42659
793.73	116.64384
793.918	127.18734
794.107	49.17857
794.295	171.47585
794.484	51.28651
794.672	131.40488
794.861	152.49392
795.049	133.51369
795.238	169.36666
795.426	169.36666
795.614	72.36716
795.803	160.93012
795.991	173.58505
796.179	215.77348
796.368	156.71198
796.556	129.2961
796.744	150.38492
796.932	182.02209
797.121	163.03922
797.309	211.55428
797.497	188.35008
797.685	116.64384
797.874	120.86117
798.062	131.40488
798.25	118.75249
798.438	177.80353
798.626	171.47585
798.814	173.58505
799.002	144.05805
799.19	110.318
799.378	150.38492
799.566	160.93012
799.755	112.42659
799.943	135.62252
800.131	91.34168
800.318	112.42659
800.506	120.86117
800.694	129.2961
800.882	165.14835
801.07	118.75249
801.258	127.18734
801.446	152.49392
801.634	215.77348
801.822	137.73137
802.01	87.12496
802.197	217.88312
802.385	122.96987
802.573	97.66692
802.761	194.67826
802.949	135.62252
803.136	25.99279
803.324	148.27594
803.512	129.2961
803.699	87.12496
803.887	152.49392
804.075	160.93012
804.262	112.42659
804.45	207.33515
804.638	219.99277
804.825	222.10244
805.013	80.80005
805.201	118.75249
805.388	87.12496
805.576	103.99236
805.763	127.18734
805.951	190.45945
806.138	99.77538
806.326	144.05805
806.513	165.14835
806.701	152.49392
806.888	192.56884
807.075	196.78769
807.263	177.80353
807.45	137.73137
807.638	93.45007
807.825	141.94913
808.012	120.86117
808.2	51.28651
808.387	156.71198
808.574	110.318
808.761	108.20943
808.949	158.82104
809.136	152.49392
809.323	201.00661
809.51	139.84024
809.698	165.14835
809.885	156.71198
810.072	167.25749
810.259	127.18734
810.446	186.24073
810.633	165.14835
810.82	129.2961
811.008	97.66692
811.195	217.88312
811.382	154.60294
811.569	148.27594
811.756	154.60294
811.943	165.14835
812.13	175.69428
812.317	89.23331
812.504	135.62252
812.691	190.45945
812.878	101.88386
813.064	194.67826
813.251	179.9128
813.438	196.78769
813.625	110.318
813.812	144.05805
813.999	169.36666
814.186	163.03922
814.372	101.88386
814.559	209.44471
814.746	177.80353
814.933	95.55848
815.12	228.43158
815.306	194.67826
815.493	211.55428
815.68	188.35008
815.866	182.02209
816.053	215.77348
816.24	243.20024
816.426	139.84024
816.613	135.62252
816.799	156.71198
816.986	148.27594
817.173	175.69428
817.359	173.58505
817.546	184.1314
817.732	192.56884
817.919	179.9128
818.105	110.318
818.292	122.96987
818.478	152.49392
818.665	182.02209
818.851	163.03922
819.037	190.45945
819.224	169.36666
819.41	184.1314
819.597	42.8549
819.783	179.9128
819.969	120.86117
820.156	184.1314
820.342	131.40488
820.528	101.88386
820.714	196.78769
820.901	108.20943
821.087	249.52996
821.273	156.71198
821.459	129.2961
821.646	148.27594
821.832	158.82104
822.018	135.62252
822.204	215.77348
822.39	175.69428
822.576	148.27594
822.762	169.36666
822.948	106.10089
823.134	139.84024
823.32	135.62252
823.507	135.62252
823.693	205.22562
823.879	152.49392
824.065	165.14835
824.25	173.58505
824.436	122.96987
824.622	177.80353
824.808	236.87069
824.994	205.22562
825.18	148.27594
825.366	127.18734
825.552	108.20943
825.738	131.40488
825.923	175.69428
826.109	194.67826
826.295	120.86117
826.481	207.33515
826.667	175.69428
826.852	211.55428
827.038	146.16698
827.224	152.49392
827.409	150.38492
827.595	80.80005
827.781	135.62252
827.966	196.78769
828.152	146.16698
828.338	89.23331
828.523	158.82104
828.709	133.51369
828.894	215.77348
829.08	129.2961
829.266	112.42659
829.451	177.80353
829.637	21.7775
829.822	163.03922
830.008	194.67826
830.193	163.03922
830.378	95.55848
830.564	148.27594
830.749	103.99236
830.935	152.49392
831.12	177.80353
831.305	203.11611
831.491	179.9128
831.676	165.14835
831.861	152.49392
832.047	87.12496
832.232	34.42366
832.417	51.28651
832.602	51.28651
832.788	122.96987
832.973	49.17857
833.158	131.40488
833.343	106.10089
833.528	177.80353
833.714	122.96987
833.899	122.96987
834.084	120.86117
834.269	163.03922
834.454	93.45007
834.639	186.24073
834.824	171.47585
835.009	76.58356
835.194	49.17857
835.379	99.77538
835.564	93.45007
835.749	131.40488
835.934	177.80353
836.119	87.12496
836.304	112.42659
836.489	175.69428
836.674	101.88386
836.859	112.42659
837.044	116.64384
837.228	101.88386
837.413	152.49392
837.598	163.03922
837.783	114.5352
837.968	169.36666
838.152	213.66387
838.337	177.80353
838.522	146.16698
838.707	70.25899
838.891	85.01664
839.076	171.47585
839.261	129.2961
839.445	167.25749
839.63	131.40488
839.815	93.45007
839.999	133.51369
840.184	95.55848
840.368	137.73137
840.553	177.80353
840.737	118.75249
840.922	127.18734
841.106	51.28651
841.291	169.36666
841.475	127.18734
841.66	114.5352
841.844	112.42659
842.029	154.60294
842.213	93.45007
842.397	19.66988
842.582	186.24073
842.766	95.55848
842.951	95.55848
843.135	78.6918
843.319	101.88386
843.504	101.88386
843.688	131.40488
843.872	152.49392
844.056	131.40488
844.241	99.77538
844.425	76.58356
844.609	110.318
844.793	110.318
844.977	47.07066
845.161	101.88386
845.346	122.96987
845.53	55.50246
845.714	78.6918
845.898	76.58356
846.082	101.88386
846.266	110.318
846.45	152.49392
846.634	127.18734
846.818	129.2961
847.002	59.7185
847.186	95.55848
847.37	59.7185
847.554	114.5352
847.738	68.15085
847.922	179.9128
848.106	156.71198
848.29	144.05805
848.473	93.45007
848.657	150.38492
848.841	112.42659
849.025	163.03922
849.209	118.75249
849.392	112.42659
849.576	177.80353
849.76	76.58356
849.944	177.80353
850.127	85.01664
850.311	101.88386
850.495	59.7185
850.678	106.10089
850.862	110.318
851.046	118.75249
851.229	93.45007
851.413	112.42659
851.596	120.86117
851.78	129.2961
851.964	127.18734
852.147	57.61047
852.331	72.36716
852.514	15.45473
852.698	44.96277
852.881	127.18734
853.065	118.75249
853.248	76.58356
853.431	44.96277
853.615	127.18734
853.798	135.62252
853.982	59.7185
854.165	127.18734
854.348	93.45007
854.532	97.66692
854.715	63.93463
854.898	49.17857
855.081	59.7185
855.265	53.39447
855.448	-3.51226
855.631	80.80005
855.814	49.17857
855.997	148.27594
856.181	63.93463
856.364	47.07066
856.547	137.73137
856.73	7.02472
856.913	99.77538
857.096	55.50246
857.279	131.40488
857.462	112.42659
857.645	32.3159
857.828	25.99279
858.011	38.63923
858.194	76.58356
858.377	68.15085
858.56	59.7185
858.743	163.03922
858.926	70.25899
859.109	61.82655
859.292	95.55848
859.475	63.93463
859.658	68.15085
859.841	66.04272
860.023	131.40488
860.206	87.12496
860.389	133.51369
860.572	44.96277
860.755	44.96277
860.937	80.80005
861.12	144.05805
861.303	97.66692
861.486	93.45007
861.668	97.66692
861.851	51.28651
862.034	51.28651
862.216	118.75249
862.399	70.25899
862.581	57.61047
862.764	97.66692
862.947	70.25899
863.129	63.93463
863.312	148.27594
863.494	17.5623
863.677	129.2961
863.859	38.63923
864.042	59.7185
864.224	61.82655
864.406	9.13219
864.589	78.6918
864.771	55.50246
864.954	95.55848
865.136	25.99279
865.318	97.66692
865.501	30.20817
865.683	103.99236
865.865	72.36716
866.048	68.15085
866.23	70.25899
866.412	87.12496
866.594	51.28651
866.777	59.7185
866.959	85.01664
867.141	25.99279
867.323	78.6918
867.505	32.3159
867.687	78.6918
867.869	99.77538
868.052	59.7185
868.234	30.20817
868.416	59.7185
868.598	68.15085
868.78	137.73137
868.962	131.40488
869.144	63.93463
869.326	93.45007
869.508	70.25899
869.69	51.28651
869.872	82.90833
870.054	93.45007
870.236	61.82655
870.417	118.75249
870.599	93.45007
870.781	101.88386
870.963	44.96277
871.145	59.7185
871.327	57.61047
871.508	91.34168
871.69	76.58356
871.872	112.42659
872.054	93.45007
872.235	125.07859
872.417	70.25899
872.599	30.20817
872.78	101.88386
872.962	101.88386
873.144	59.7185
873.325	78.6918
873.507	95.55848
873.689	93.45007
873.87	-3.51226
874.052	110.318
874.233	44.96277
874.415	-5.61958
874.596	101.88386
874.778	51.28651
874.959	137.73137
875.141	108.20943
875.322	34.42366
875.503	36.53143
875.685	85.01664
875.866	70.25899
876.048	95.55848
876.229	93.45007
876.41	47.07066
876.592	63.93463
876.773	85.01664
876.954	72.36716
877.136	30.20817
877.317	76.58356
877.498	59.7185
877.679	42.8549
877.86	61.82655
878.042	59.7185
878.223	70.25899
878.404	36.53143
878.585	129.2961
878.766	53.39447
878.947	122.96987
879.128	158.82104
879.309	93.45007
879.49	93.45007
879.672	42.8549
879.853	42.8549
880.034	144.05805
880.215	93.45007
880.396	68.15085
880.576	70.25899
880.757	2.80986
880.938	68.15085
881.119	-35.11954
881.3	74.47535
881.481	51.28651
881.662	57.61047
881.843	30.20817
882.023	122.96987
882.204	-30.90556
882.385	76.58356
882.566	106.10089
882.747	154.60294
882.927	129.2961
883.108	129.2961
883.289	112.42659
883.469	87.12496
883.65	68.15085
883.831	17.5623
884.011	101.88386
884.192	61.82655
884.373	118.75249
884.553	118.75249
884.734	40.74705
884.914	103.99236
885.095	68.15085
885.275	101.88386
885.456	80.80005
885.636	112.42659
885.817	-11.94141
885.997	25.99279
886.178	103.99236
886.358	154.60294
886.538	97.66692
886.719	80.80005
886.899	47.07066
887.08	106.10089
887.26	99.77538
887.44	40.74705
887.621	55.50246
887.801	19.66988
887.981	57.61047
888.161	112.42659
888.342	133.51369
888.522	40.74705
888.702	53.39447
888.882	72.36716
889.062	61.82655
889.242	72.36716
889.423	63.93463
889.603	23.88513
889.783	53.39447
889.963	23.88513
890.143	76.58356
890.323	97.66692
890.503	118.75249
890.683	118.75249
890.863	97.66692
891.043	44.96277
891.223	99.77538
891.403	51.28651
891.583	99.77538
891.763	40.74705
891.943	76.58356
892.122	78.6918
892.302	34.42366
892.482	93.45007
892.662	36.53143
892.842	110.318
893.022	63.93463
893.201	42.8549
893.381	89.23331
893.561	66.04272
893.741	51.28651
893.92	17.5623
894.1	95.55848
894.28	34.42366
894.459	21.7775
894.639	19.66988
894.819	127.18734
894.998	23.88513
895.178	110.318
895.357	68.15085
895.537	30.20817
895.716	131.40488
895.896	47.07066
896.075	78.6918
896.255	42.8549
896.434	74.47535
896.614	34.42366
896.793	28.10047
896.973	49.17857
897.152	49.17857
897.331	53.39447
897.511	97.66692
897.69	87.12496
897.87	28.10047
898.049	91.34168
898.228	76.58356
898.407	76.58356
898.587	110.318
898.766	47.07066
898.945	61.82655
899.124	51.28651
899.304	19.66988
899.483	-20.37016
899.662	63.93463
899.841	101.88386
900.02	120.86117
900.199	93.45007
900.378	42.8549
900.557	53.39447
900.737	70.25899
900.916	70.25899
901.095	47.07066
901.274	19.66988
901.453	154.60294
901.632	93.45007
901.811	55.50246
901.989	61.82655
902.168	40.74705
902.347	112.42659
902.526	101.88386
902.705	-14.04863
902.884	68.15085
903.063	-24.5844
903.242	76.58356
903.42	76.58356
903.599	85.01664
903.778	85.01664
903.957	144.05805
904.135	9.13219
904.314	55.50246
904.493	74.47535
904.672	53.39447
904.85	17.5623
905.029	38.63923
905.207	36.53143
905.386	61.82655
905.565	70.25899
905.743	25.99279
905.922	13.34719
906.1	15.45473
906.279	21.7775
906.457	101.88386
906.636	9.13219
906.814	59.7185
906.993	89.23331
907.171	87.12496
907.35	78.6918
907.528	72.36716
907.707	93.45007
907.885	114.5352
908.063	110.318
908.242	-47.7609
908.42	17.5623
908.598	-7.72688
908.777	87.12496
908.955	68.15085
909.133	76.58356
909.311	72.36716
909.49	34.42366
909.668	51.28651
909.846	30.20817
910.024	101.88386
910.202	17.5623
910.38	76.58356
910.559	13.34719
910.737	66.04272
910.915	7.02472
911.093	106.10089
911.271	78.6918
911.449	72.36716
911.627	59.7185
911.805	13.34719
911.983	34.42366
912.161	61.82655
912.339	30.20817
912.517	63.93463
912.695	44.96277
912.872	85.01664
913.05	44.96277
913.228	70.25899
913.406	55.50246
913.584	110.318
913.762	38.63923
913.939	59.7185
914.117	17.5623
914.295	59.7185
914.473	72.36716
914.65	66.04272
914.828	93.45007
915.006	28.10047
915.184	80.80005
915.361	4.91728
915.539	63.93463
915.716	-24.5844
915.894	44.96277
916.072	70.25899
916.249	42.8549
916.427	80.80005
916.604	21.7775
916.782	-7.72688
916.959	44.96277
917.137	42.8549
917.314	59.7185
917.492	78.6918
917.669	103.99236
917.847	-14.04863
918.024	72.36716
918.201	47.07066
918.379	17.5623
918.556	70.25899
918.733	78.6918
918.911	30.20817
919.088	-14.04863
919.265	36.53143
919.442	51.28651
919.62	-47.7609
919.797	53.39447
919.974	106.10089
920.151	68.15085
920.328	25.99279
920.506	59.7185
920.683	70.25899
920.86	-9.83416
921.037	85.01664
921.214	40.74705
921.391	25.99279
921.568	51.28651
921.745	21.7775
921.922	59.7185
922.099	30.20817
922.276	97.66692
922.453	-7.72688
922.63	38.63923
922.807	21.7775
922.984	9.13219
923.161	131.40488
923.338	59.7185
923.514	51.28651
923.691	34.42366
923.868	112.42659
924.045	-3.51226
924.222	44.96277
924.399	30.20817
924.575	36.53143
924.752	110.318
924.929	2.80986
925.105	25.99279
925.282	4.91728
925.459	93.45007
925.635	51.28651
925.812	51.28651
925.989	51.28651
926.165	42.8549
926.342	25.99279
926.518	32.3159
926.695	-5.61958
926.871	42.8549
927.048	55.50246
927.224	30.20817
927.401	21.7775
927.577	34.42366
927.754	63.93463
927.93	23.88513
928.107	85.01664
928.283	25.99279
928.459	-11.94141
928.636	57.61047
928.812	66.04272
928.988	44.96277
929.165	25.99279
929.341	36.53143
929.517	13.34719
929.693	38.63923
929.87	-28.79853
930.046	28.10047
930.222	42.8549
930.398	28.10047
930.574	44.96277
930.751	70.25899
930.927	-24.5844
931.103	21.7775
931.279	32.3159
931.455	70.25899
931.631	47.07066
931.807	44.96277
931.983	9.13219
932.159	-30.90556
932.335	61.82655
932.511	95.55848
932.687	-5.61958
932.863	110.318
933.039	59.7185
933.215	38.63923
933.391	44.96277
933.566	70.25899
933.742	-5.61958
933.918	36.53143
934.094	59.7185
934.27	-16.15583
934.445	28.10047
934.621	9.13219
934.797	-7.72688
934.973	21.7775
935.148	59.7185
935.324	9.13219
935.5	72.36716
935.675	11.23968
935.851	51.28651
936.027	74.47535
936.202	9.13219
936.378	66.04272
936.553	63.93463
936.729	47.07066
936.904	59.7185
937.08	40.74705
937.255	82.90833
937.431	36.53143
937.606	-24.5844
937.782	-16.15583
937.957	36.53143
938.133	38.63923
938.308	44.96277
938.483	61.82655
938.659	91.34168
938.834	28.10047
939.009	47.07066
939.185	9.13219
939.36	17.5623
939.535	114.5352
939.71	55.50246
939.886	59.7185
940.061	32.3159
940.236	-1.40491
940.411	-11.94141
940.586	23.88513
940.761	59.7185
940.937	66.04272
941.112	47.07066
941.287	9.13219
941.462	21.7775
941.637	-9.83416
941.812	85.01664
941.987	21.7775
942.162	78.6918
942.337	-24.5844
942.512	53.39447
942.687	0.70246
942.862	-1.40491
943.037	9.13219
943.212	13.34719
943.386	-11.94141
943.561	21.7775
943.736	34.42366
943.911	42.8549
944.086	53.39447
944.26	-18.26301
944.435	87.12496
944.61	-39.33343
944.785	87.12496
944.959	17.5623
945.134	0.70246
945.309	0.70246
945.483	7.02472
945.658	78.6918
945.833	17.5623
946.007	-24.5844
946.182	-56.18797
946.357	36.53143
946.531	15.45473
946.706	-11.94141
946.88	-58.29468
947.055	32.3159
947.229	-3.51226
947.404	-24.5844
947.578	-43.54722
947.752	9.13219
947.927	28.10047
948.101	-24.5844
948.276	36.53143
948.45	28.10047
948.624	59.7185
948.799	11.23968
948.973	-28.79853
949.147	-45.65407
949.321	0.70246
949.496	-20.37016
949.67	78.6918
949.844	49.17857
950.018	-56.18797
950.193	-7.72688
950.367	89.23331
950.541	11.23968
950.715	11.23968
950.889	17.5623
951.063	34.42366
951.237	-39.33343
951.411	2.80986
951.585	47.07066
951.759	-5.61958
951.933	51.28651
952.107	-16.15583
952.281	59.7185
952.455	-33.01256
952.629	-66.72124
952.803	42.8549
952.977	53.39447
953.151	-9.83416
953.325	9.13219
953.499	93.45007
953.672	13.34719
953.846	-16.15583
954.02	4.91728
954.194	-33.01256
954.368	-14.04863
954.541	38.63923
954.715	-47.7609
954.889	-7.72688
955.062	72.36716
955.236	44.96277
955.41	25.99279
955.583	57.61047
955.757	0.70246
955.93	51.28651
956.104	-35.11954
956.278	15.45473
956.451	30.20817
956.625	-45.65407
956.798	57.61047
956.972	30.20817
957.145	-58.29468
957.319	-60.40135
957.492	103.99236
957.665	-62.50801
957.839	55.50246
958.012	-24.5844
958.185	17.5623
958.359	-30.90556
958.532	11.23968
958.705	114.5352
958.879	21.7775
959.052	-33.01256
959.225	34.42366
959.398	25.99279
959.572	28.10047
959.745	-16.15583
959.918	-22.47729
960.091	9.13219
960.264	-62.50801
960.438	0.70246
960.611	80.80005
960.784	21.7775
960.957	51.28651
961.13	7.02472
961.303	19.66988
961.476	51.28651
961.649	7.02472
961.822	19.66988
961.995	25.99279
962.168	40.74705
962.341	133.51369
962.514	21.7775
962.686	13.34719
962.859	-30.90556
963.032	30.20817
963.205	-33.01256
963.378	-9.83416
963.551	-11.94141
963.723	19.66988
963.896	47.07066
964.069	93.45007
964.242	53.39447
964.414	91.34168
964.587	11.23968
964.76	17.5623
964.932	17.5623
965.105	51.28651
965.278	-58.29468
965.45	55.50246
965.623	-7.72688
965.795	-73.04089
965.968	-49.86771
966.14	2.80986
966.313	72.36716
966.485	89.23331
966.658	25.99279
966.83	-26.69148
967.003	68.15085
967.175	23.88513
967.348	-41.44034
967.52	47.07066
967.692	-37.2265
967.865	42.8549
968.037	-14.04863
968.209	11.23968
968.382	-14.04863
968.554	53.39447
968.726	-37.2265
968.898	51.28651
969.071	51.28651
969.243	42.8549
969.415	-16.15583
969.587	-49.86771
969.759	-14.04863
969.932	0.70246
970.104	70.25899
970.276	-11.94141
970.448	-33.01256
970.62	-91.99847
970.792	11.23968
970.964	-24.5844
971.136	59.7185
971.308	17.5623
971.48	76.58356
971.652	68.15085
971.824	2.80986
971.996	9.13219
972.168	30.20817
972.339	61.82655
972.511	63.93463
972.683	17.5623
972.855	32.3159
973.027	-51.97449
973.199	34.42366
973.37	-33.01256
973.542	2.80986
973.714	23.88513
973.886	34.42366
974.057	99.77538
974.229	13.34719
974.401	30.20817
974.572	59.7185
974.744	28.10047
974.915	-47.7609
975.087	-54.08124
975.259	55.50246
975.43	11.23968
975.602	34.42366
975.773	42.8549
975.945	9.13219
976.116	93.45007
976.288	-35.11954
976.459	55.50246
976.63	-11.94141
976.802	55.50246
976.973	-11.94141
977.145	-16.15583
977.316	-20.37016
977.487	59.7185
977.659	76.58356
977.83	0.70246
978.001	38.63923
978.172	44.96277
978.344	15.45473
978.515	28.10047
978.686	19.66988
978.857	30.20817
979.028	36.53143
979.2	19.66988
979.371	-58.29468
979.542	2.80986
979.713	-18.26301
979.884	2.80986
980.055	32.3159
980.226	-16.15583
980.397	59.7185
980.568	85.01664
980.739	68.15085
980.91	-3.51226
981.081	-33.01256
981.252	2.80986
981.423	38.63923
981.594	0.70246
981.765	0.70246
981.936	-22.47729
982.106	59.7185
982.277	-75.1474
982.448	55.50246
982.619	47.07066
982.79	21.7775
982.96	0.70246
983.131	9.13219
983.302	21.7775
983.472	36.53143
983.643	-11.94141
983.814	36.53143
983.984	-58.29468
984.155	17.5623
984.326	17.5623
984.496	30.20817
984.667	-22.47729
984.837	21.7775
985.008	0.70246
985.178	42.8549
985.349	13.34719
985.519	-3.51226
985.69	13.34719
985.86	-14.04863
986.031	-11.94141
986.201	-9.83416
986.371	114.5352
986.542	9.13219
986.712	-9.83416
986.882	-16.15583
987.053	-7.72688
987.223	9.13219
987.393	30.20817
987.563	4.91728
987.734	55.50246
987.904	-20.37016
988.074	61.82655
988.244	47.07066
988.414	-14.04863
988.585	-3.51226
988.755	-5.61958
988.925	34.42366
989.095	17.5623
989.265	-45.65407
989.435	74.47535
989.605	55.50246
989.775	-11.94141
989.945	30.20817
990.115	47.07066
990.285	-24.5844
990.455	13.34719
990.625	17.5623
990.795	-11.94141
990.965	-1.40491
991.134	42.8549
991.304	-33.01256
991.474	-14.04863
991.644	25.99279
991.814	-22.47729
991.984	7.02472
992.153	-9.83416
992.323	70.25899
992.493	25.99279
992.662	17.5623
992.832	-47.7609
993.002	103.99236
993.171	25.99279
993.341	40.74705
993.511	59.7185
993.68	-64.61464
993.85	-1.40491
994.019	-39.33343
994.189	34.42366
994.358	21.7775
994.528	68.15085
994.697	-11.94141
994.867	-47.7609
995.036	25.99279
995.206	-22.47729
995.375	53.39447
995.544	-5.61958
995.714	63.93463
995.883	-9.83416
996.052	25.99279
996.222	4.91728
996.391	-1.40491
996.56	-1.40491
996.73	-98.3172
996.899	36.53143
997.068	21.7775
997.237	57.61047
997.406	78.6918
997.576	-20.37016
997.745	17.5623
997.914	-41.44034
998.083	72.36716
998.252	44.96277
998.421	-28.79853
998.59	23.88513
998.759	-22.47729
998.928	55.50246
999.097	-3.51226
999.266	53.39447
999.435	70.25899
999.604	9.13219
999.773	-7.72688
999.942	38.63923
1000.111	47.07066
1000.28	82.90833
1000.448	-16.15583
1000.617	59.7185
1000.786	-43.54722
1000.955	-30.90556
1001.124	51.28651
1001.292	-16.15583
1001.461	-16.15583
1001.63	25.99279
1001.798	47.07066
1001.967	15.45473
1002.136	-62.50801
1002.304	-18.26301
1002.473	-58.29468
1002.642	-54.08124
1002.81	28.10047
1002.979	30.20817
1003.147	-20.37016
1003.316	-51.97449
1003.484	-16.15583
1003.653	-41.44034
1003.821	95.55848
1003.99	72.36716
1004.158	-98.3172
1004.327	40.74705
1004.495	-49.86771
1004.663	-16.15583
1004.832	25.99279
1005	-33.01256
1005.168	13.34719
1005.337	11.23968
1005.505	7.02472
1005.673	-16.15583
1005.842	34.42366
1006.01	-70.93437
1006.178	-41.44034
1006.346	25.99279
1006.514	2.80986
1006.683	-14.04863
1006.851	42.8549
1007.019	47.07066
1007.187	68.15085
1007.355	51.28651
1007.523	66.04272
1007.691	-62.50801
1007.859	-7.72688
1008.027	-3.51226
1008.195	59.7185
1008.363	36.53143
1008.531	55.50246
1008.699	-66.72124
1008.867	11.23968
1009.035	36.53143
1009.203	-7.72688
1009.37	47.07066
1009.538	-20.37016
1009.706	-45.65407
1009.874	68.15085
1010.042	53.39447
1010.209	-3.51226
1010.377	7.02472
1010.545	36.53143
1010.713	-41.44034
1010.88	-94.10474
1011.048	-16.15583
1011.216	-33.01256
1011.383	76.58356
1011.551	19.66988
1011.718	70.25899
1011.886	51.28651
1012.054	93.45007
1012.221	32.3159
1012.389	34.42366
1012.556	25.99279
1012.724	11.23968
1012.891	-41.44034
1013.058	-16.15583
1013.226	-70.93437
1013.393	23.88513
1013.561	49.17857
1013.728	19.66988
1013.895	-9.83416
1014.063	34.42366
1014.23	38.63923
1014.397	0.70246
1014.565	9.13219
1014.732	-45.65407
1014.899	34.42366
1015.066	-47.7609
1015.233	40.74705
1015.401	2.80986
1015.568	25.99279
1015.735	40.74705
1015.902	-14.04863
1016.069	-33.01256
1016.236	25.99279
1016.403	34.42366
1016.57	-1.40491
1016.737	17.5623
1016.904	-5.61958
1017.071	-1.40491
1017.238	7.02472
1017.405	44.96277
1017.572	-3.51226
1017.739	-20.37016
1017.906	-43.54722
1018.073	-11.94141
1018.24	-3.51226
1018.407	-26.69148
1018.573	68.15085
1018.74	-26.69148
1018.907	17.5623
1019.074	42.8549
1019.241	11.23968
1019.407	-11.94141
1019.574	-60.40135
1019.741	34.42366
1019.907	-41.44034
1020.074	-142.54161
1020.241	-24.5844
1020.407	-14.04863
1020.574	4.91728
1020.74	59.7185
1020.907	-14.04863
1021.073	17.5623
1021.24	25.99279
1021.406	76.58356
1021.573	25.99279
1021.739	-14.04863
1021.906	21.7775
1022.072	53.39447
1022.239	34.42366
1022.405	32.3159
1022.571	11.23968
1022.738	-16.15583
1022.904	0.70246
1023.07	25.99279
1023.237	59.7185
1023.403	-14.04863
1023.569	70.25899
1023.735	23.88513
1023.902	-49.86771
1024.068	-14.04863
1024.234	53.39447
1024.4	38.63923
1024.566	30.20817
1024.732	-28.79853
1024.898	-41.44034
1025.065	17.5623
1025.231	-45.65407
1025.397	30.20817
1025.563	-45.65407
1025.729	-30.90556
1025.895	-16.15583
1026.061	9.13219
1026.227	9.13219
1026.392	47.07066
1026.558	47.07066
1026.724	11.23968
1026.89	0.70246
1027.056	25.99279
1027.222	36.53143
1027.388	9.13219
1027.553	-7.72688
1027.719	2.80986
1027.885	30.20817
1028.051	-24.5844
1028.216	15.45473
1028.382	-54.08124
1028.548	7.02472
1028.713	34.42366
1028.879	4.91728
1029.045	-5.61958
1029.21	-24.5844
1029.376	-37.2265
1029.541	9.13219
1029.707	44.96277
1029.873	34.42366
1030.038	23.88513
1030.204	-11.94141
1030.369	25.99279
1030.534	-33.01256
1030.7	-11.94141
1030.865	4.91728
1031.031	93.45007
1031.196	-24.5844
1031.361	36.53143
1031.527	13.34719
1031.692	47.07066
1031.857	34.42366
1032.023	-18.26301
1032.188	36.53143
1032.353	99.77538
1032.518	44.96277
1032.684	21.7775
1032.849	-22.47729
1033.014	-20.37016
1033.179	47.07066
1033.344	68.15085
1033.509	25.99279
1033.674	72.36716
1033.839	68.15085
1034.004	21.7775
1034.17	4.91728
1034.335	21.7775
1034.5	13.34719
1034.664	-16.15583
1034.829	76.58356
1034.994	44.96277
1035.159	2.80986
1035.324	17.5623
1035.489	11.23968
1035.654	40.74705
1035.819	36.53143
1035.984	17.5623
1036.148	-47.7609
1036.313	63.93463
1036.478	-16.15583
1036.643	-20.37016
1036.807	-3.51226
1036.972	-24.5844
1037.137	89.23331
1037.301	59.7185
1037.466	129.2961
1037.631	13.34719
1037.795	13.34719
1037.96	19.66988
1038.124	36.53143
1038.289	-1.40491
1038.454	23.88513
1038.618	25.99279
1038.783	25.99279
1038.947	-33.01256
1039.111	-81.46674
1039.276	61.82655
1039.44	21.7775
1039.605	36.53143
1039.769	68.15085
1039.933	59.7185
1040.098	51.28651
1040.262	42.8549
1040.426	21.7775
1040.591	-14.04863
1040.755	34.42366
1040.919	9.13219
1041.083	40.74705
1041.248	-30.90556
1041.412	-39.33343
1041.576	13.34719
1041.74	47.07066
1041.904	-11.94141
1042.068	-5.61958
1042.232	30.20817
1042.397	-16.15583
1042.561	28.10047
1042.725	17.5623
1042.889	4.91728
1043.053	68.15085
1043.217	17.5623
1043.381	53.39447
1043.544	-11.94141
1043.708	55.50246
1043.872	19.66988
1044.036	-5.61958
1044.2	-11.94141
1044.364	42.8549
1044.528	13.34719
1044.691	42.8549
1044.855	-5.61958
1045.019	47.07066
1045.183	-28.79853
1045.346	-14.04863
1045.51	-26.69148
1045.674	-33.01256
1045.837	30.20817
1046.001	-30.90556
1046.165	-33.01256
1046.328	40.74705
1046.492	-18.26301
1046.655	17.5623
1046.819	7.02472
1046.983	34.42366
1047.146	-3.51226
1047.31	-45.65407
1047.473	49.17857
1047.636	23.88513
1047.8	19.66988
1047.963	72.36716
1048.127	78.6918
1048.29	-20.37016
