Data from Scatter_Coeff_Baseline_USB4F045381__52__0052.txt Node

Date: Thu Feb 13 19:33:13 EST 2025
User: mmckonesweet
Spectrometer: USB4F04538
Trigger mode: 4
Integration Time (sec): 2.400000E-3
Scans to average: 1
Electric dark correction enabled: true
Nonlinearity correction enabled: true
Boxcar width: 0
XAxis mode: Wavelengths
Number of Pixels in Spectrum: 3648
>>>>>Begin Spectral Data<<<<<
345.52	37.05838
345.736	37.05838
345.952	37.05838
346.168	-13.52183
346.384	15.98162
346.6	13.87408
346.816	-15.62904
347.032	-21.95051
347.248	-13.52183
347.464	-43.0205
347.68	64.46165
347.896	-0.87807
348.112	30.7351
348.328	-55.66129
348.544	-5.09275
348.76	53.92147
348.975	-7.20006
349.191	20.19678
349.407	-28.27177
349.623	-40.91361
349.839	-13.52183
350.055	3.33671
350.27	-17.73622
350.486	-30.3788
350.702	-26.16471
350.918	30.7351
351.133	45.48974
351.349	3.33671
351.565	62.35357
351.781	26.51971
351.996	60.24551
352.212	5.44413
352.428	5.44413
352.644	-5.09275
352.859	7.55158
353.075	-19.84338
353.291	-51.44779
353.506	-45.12736
353.722	58.13747
353.938	26.51971
354.153	-49.34101
354.369	51.8135
354.584	-28.27177
354.8	5.44413
355.016	37.05838
355.231	-15.62904
355.447	-30.3788
355.662	22.3044
355.878	24.41204
356.093	47.59764
356.309	49.70556
356.524	43.38186
356.74	53.92147
356.955	28.62739
357.171	13.87408
357.386	43.38186
357.602	41.27401
357.817	11.76656
358.033	45.48974
358.248	15.98162
358.464	51.8135
358.679	62.35357
358.895	11.76656
359.11	53.92147
359.325	1.22931
359.541	-19.84338
359.756	-43.0205
359.972	28.62739
360.187	70.78603
360.402	15.98162
360.618	39.16618
360.833	28.62739
361.048	87.65205
361.264	34.9506
361.479	41.27401
361.694	-0.87807
361.909	3.33671
362.125	3.33671
362.34	-9.30734
362.555	3.33671
362.77	5.44413
362.986	53.92147
363.201	5.44413
363.416	34.9506
363.631	22.3044
363.847	58.13747
364.062	-11.4146
364.277	30.7351
364.492	-87.25927
364.707	13.87408
364.922	7.55158
365.138	1.22931
365.353	11.76656
365.568	-26.16471
365.783	-45.12736
365.998	30.7351
366.213	7.55158
366.428	20.19678
366.643	5.44413
366.858	22.3044
367.073	13.87408
367.288	-26.16471
367.503	11.76656
367.718	62.35357
367.933	-13.52183
368.148	-17.73622
368.363	22.3044
368.578	81.32712
368.793	5.44413
369.008	-38.8067
369.223	68.67788
369.438	66.56975
369.653	-13.52183
369.868	-21.95051
370.083	3.33671
370.298	-19.84338
370.513	-47.2342
370.728	15.98162
370.943	28.62739
371.157	20.19678
371.372	3.33671
371.587	-51.44779
371.802	-30.3788
372.017	5.44413
372.232	5.44413
372.446	30.7351
372.661	-53.55456
372.876	58.13747
373.091	24.41204
373.306	-13.52183
373.52	89.7604
373.735	30.7351
373.95	-26.16471
374.165	24.41204
374.379	26.51971
374.594	45.48974
374.809	-5.09275
375.023	-7.20006
375.238	58.13747
375.453	47.59764
375.667	45.48974
375.882	53.92147
376.097	-21.95051
376.311	60.24551
376.526	24.41204
376.741	24.41204
376.955	-32.48582
377.17	-9.30734
377.384	28.62739
377.599	-30.3788
377.813	5.44413
378.028	7.55158
378.242	13.87408
378.457	-34.5928
378.672	11.76656
378.886	-28.27177
379.101	3.33671
379.315	-30.3788
379.53	64.46165
379.744	53.92147
379.958	39.16618
380.173	30.7351
380.387	-30.3788
380.602	32.84284
380.816	68.67788
381.031	15.98162
381.245	7.55158
381.459	3.33671
381.674	26.51971
381.888	-11.4146
382.103	1.22931
382.317	-5.09275
382.531	96.08559
382.746	-80.94014
382.96	30.7351
383.174	13.87408
383.388	26.51971
383.603	-0.87807
383.817	-34.5928
384.031	-15.62904
384.246	11.76656
384.46	-5.09275
384.674	-43.0205
384.888	-51.44779
385.103	11.76656
385.317	11.76656
385.531	7.55158
385.745	7.55158
385.959	60.24551
386.174	3.33671
386.388	-0.87807
386.602	1.22931
386.816	-11.4146
387.03	45.48974
387.244	30.7351
387.458	112.95374
387.672	3.33671
387.887	-59.87469
388.101	-2.98542
388.315	49.70556
388.529	79.21886
388.743	62.35357
388.957	-17.73622
389.171	62.35357
389.385	-26.16471
389.599	20.19678
389.813	98.19403
390.027	9.65906
390.241	79.21886
390.455	-11.4146
390.669	77.11062
390.883	26.51971
391.097	117.171
391.311	58.13747
391.525	-51.44779
391.738	-26.16471
391.952	-13.52183
392.166	-38.8067
392.38	-38.8067
392.594	53.92147
392.808	11.76656
393.022	11.76656
393.236	64.46165
393.449	34.9506
393.663	47.59764
393.877	-13.52183
394.091	-38.8067
394.305	-11.4146
394.518	53.92147
394.732	56.02946
394.946	83.43541
395.16	-13.52183
395.373	-38.8067
395.587	24.41204
395.801	-21.95051
396.015	22.3044
396.228	81.32712
396.442	11.76656
396.656	-64.08798
396.869	24.41204
397.083	-30.3788
397.297	104.51949
397.51	3.33671
397.724	62.35357
397.938	51.8135
398.151	39.16618
398.365	28.62739
398.578	62.35357
398.792	11.76656
399.005	28.62739
399.219	85.54372
399.433	-57.768
399.646	28.62739
399.86	-11.4146
400.073	-11.4146
400.287	3.33671
400.5	-47.2342
400.714	-5.09275
400.927	13.87408
401.141	15.98162
401.354	39.16618
401.567	-64.08798
401.781	3.33671
401.994	32.84284
402.208	-0.87807
402.421	28.62739
402.635	-28.27177
402.848	62.35357
403.061	39.16618
403.275	-7.20006
403.488	-38.8067
403.701	53.92147
403.915	28.62739
404.128	5.44413
404.341	87.65205
404.555	-19.84338
404.768	-9.30734
404.981	91.86877
405.195	-0.87807
405.408	64.46165
405.621	49.70556
405.834	47.59764
406.048	121.38835
406.261	9.65906
406.474	96.08559
406.687	-68.30117
406.9	32.84284
407.114	-15.62904
407.327	64.46165
407.54	-19.84338
407.753	22.3044
407.966	32.84284
408.179	5.44413
408.392	39.16618
408.605	-38.8067
408.819	-57.768
409.032	34.9506
409.245	62.35357
409.458	62.35357
409.671	56.02946
409.884	3.33671
410.097	-43.0205
410.31	20.19678
410.523	22.3044
410.736	-30.3788
410.949	39.16618
411.162	20.19678
411.375	28.62739
411.588	26.51971
411.801	49.70556
412.014	-9.30734
412.227	28.62739
412.44	-11.4146
412.653	79.21886
412.865	3.33671
413.078	-2.98542
413.291	-13.52183
413.504	-7.20006
413.717	-17.73622
413.93	45.48974
414.143	-28.27177
414.356	41.27401
414.568	7.55158
414.781	18.08919
414.994	37.05838
415.207	13.87408
415.42	129.82329
415.632	41.27401
415.845	-0.87807
416.058	13.87408
416.271	15.98162
416.483	89.7604
416.696	20.19678
416.909	39.16618
417.121	11.76656
417.334	28.62739
417.547	41.27401
417.759	28.62739
417.972	37.05838
418.185	87.65205
418.397	22.3044
418.61	28.62739
418.823	53.92147
419.035	-5.09275
419.248	79.21886
419.46	45.48974
419.673	112.95374
419.885	-5.09275
420.098	83.43541
420.311	53.92147
420.523	-9.30734
420.736	62.35357
420.948	66.56975
421.161	93.97717
421.373	77.11062
421.586	47.59764
421.798	30.7351
422.01	106.62802
422.223	24.41204
422.435	-24.05762
422.648	72.8942
422.86	75.0024
423.073	45.48974
423.285	-32.48582
423.497	20.19678
423.71	3.33671
423.922	45.48974
424.134	30.7351
424.347	75.0024
424.559	-26.16471
424.771	5.44413
424.984	-5.09275
425.196	-36.69976
425.408	3.33671
425.621	87.65205
425.833	34.9506
426.045	96.08559
426.257	-26.16471
426.47	47.59764
426.682	-5.09275
426.894	34.9506
427.106	24.41204
427.318	3.33671
427.531	-49.34101
427.743	115.06236
427.955	5.44413
428.167	53.92147
428.379	37.05838
428.591	-9.30734
428.804	28.62739
429.016	121.38835
429.228	32.84284
429.44	39.16618
429.652	32.84284
429.864	66.56975
430.076	24.41204
430.288	-17.73622
430.5	32.84284
430.712	49.70556
430.924	11.76656
431.136	-5.09275
431.348	53.92147
431.56	-5.09275
431.772	58.13747
431.984	39.16618
432.196	24.41204
432.408	37.05838
432.62	-5.09275
432.832	-2.98542
433.044	-15.62904
433.256	41.27401
433.468	24.41204
433.679	66.56975
433.891	37.05838
434.103	89.7604
434.315	53.92147
434.527	121.38835
434.739	-38.8067
434.95	41.27401
435.162	-19.84338
435.374	15.98162
435.586	96.08559
435.798	28.62739
436.009	60.24551
436.221	89.7604
436.433	26.51971
436.645	91.86877
436.856	51.8135
437.068	9.65906
437.28	28.62739
437.491	5.44413
437.703	22.3044
437.915	45.48974
438.126	20.19678
438.338	24.41204
438.55	13.87408
438.761	58.13747
438.973	-5.09275
439.184	3.33671
439.396	-0.87807
439.608	62.35357
439.819	43.38186
440.031	20.19678
440.242	64.46165
440.454	49.70556
440.665	15.98162
440.877	163.5665
441.088	91.86877
441.3	11.76656
441.511	51.8135
441.723	81.32712
441.934	20.19678
442.146	68.67788
442.357	28.62739
442.569	20.19678
442.78	30.7351
442.991	75.0024
443.203	37.05838
443.414	62.35357
443.626	56.02946
443.837	41.27401
444.048	41.27401
444.26	11.76656
444.471	68.67788
444.682	85.54372
444.894	70.78603
445.105	70.78603
445.316	85.54372
445.528	39.16618
445.739	96.08559
445.95	125.60578
446.161	91.86877
446.373	100.3025
446.584	28.62739
446.795	37.05838
447.006	83.43541
447.217	43.38186
447.429	62.35357
447.64	79.21886
447.851	64.46165
448.062	58.13747
448.273	146.69422
448.484	172.00315
448.695	56.02946
448.907	37.05838
449.118	68.67788
449.329	96.08559
449.54	91.86877
449.751	24.41204
449.962	75.0024
450.173	129.82329
450.384	176.22159
450.595	205.753
450.806	127.71452
451.017	-36.69976
451.228	32.84284
451.439	41.27401
451.65	45.48974
451.861	119.27966
452.072	39.16618
452.283	184.65873
452.494	58.13747
452.705	127.71452
452.915	39.16618
453.126	129.82329
453.337	70.78603
453.548	134.0409
453.759	58.13747
453.97	159.34831
454.181	96.08559
454.391	117.171
454.602	102.41098
454.813	142.47636
455.024	41.27401
455.235	66.56975
455.445	121.38835
455.656	155.13019
455.867	66.56975
456.078	87.65205
456.288	136.14973
456.499	83.43541
456.71	176.22159
456.921	115.06236
457.131	85.54372
457.342	108.73657
457.553	148.80318
457.763	117.171
457.974	201.53399
458.184	150.91217
458.395	96.08559
458.606	121.38835
458.816	146.69422
459.027	190.9868
459.237	96.08559
459.448	142.47636
459.659	256.38735
459.869	172.00315
460.08	62.35357
460.29	104.51949
460.501	123.49705
460.711	182.54942
460.922	110.84515
461.132	146.69422
461.343	233.17854
461.553	188.87742
461.764	165.67563
461.974	193.0962
462.184	144.58528
462.395	188.87742
462.605	222.62986
462.816	136.14973
463.026	222.62986
463.236	226.84928
463.447	205.753
463.657	197.31505
463.867	167.78478
464.078	247.94751
464.288	127.71452
464.498	275.37808
464.709	199.42451
464.919	186.76807
465.129	262.71742
465.339	205.753
465.55	243.72771
465.76	228.95901
465.97	241.61784
466.18	247.94751
466.391	275.37808
466.601	252.16739
466.811	361.91018
467.021	292.26001
467.231	425.2447
467.441	292.26001
467.651	361.91018
467.862	334.46994
468.072	247.94751
468.282	370.35392
468.492	366.13202
468.702	330.24862
468.912	397.79792
469.122	340.80204
469.332	370.35392
469.542	353.46672
469.752	374.57589
469.962	444.24789
470.172	475.92268
470.382	509.71283
470.592	482.25804
470.802	484.36986
471.012	526.6093
471.222	608.99218
471.432	530.83356
471.642	554.06798
471.852	666.03791
472.062	712.52596
472.272	668.15088
472.482	554.06798
472.691	752.679
472.901	756.90586
473.111	805.51757
473.321	678.71592
473.531	826.65467
473.741	841.45119
473.95	902.75551
474.16	794.94937
474.37	993.66698
474.58	864.70372
474.79	974.63792
474.999	881.6153
475.209	1067.67363
475.419	947.15248
475.628	1173.40847
475.838	928.12481
476.048	1097.2782
476.258	1128.99846
476.467	1312.99246
476.677	1207.24582
476.886	1340.4875
477.096	1456.8147
477.306	1450.46954
477.515	1287.61271
477.725	1524.49619
477.935	1376.44292
478.144	1448.35449
478.354	1516.03604
478.563	1659.85547
478.773	1558.33664
478.982	1803.6629
479.192	1744.45004
479.401	1668.31515
479.611	1932.64996
479.82	1884.01772
480.03	1845.95577
480.239	1888.24672
480.449	1888.24672
480.658	2067.9576
480.868	2053.15966
481.077	2247.61667
481.287	2175.76011
481.496	2260.29618
481.705	2253.95647
481.915	2477.90649
482.124	2228.59679
482.333	2420.87355
482.543	2465.23319
482.752	2431.4358
482.961	2553.93776
483.171	2644.73285
483.38	2471.56989
483.589	2632.06513
483.799	2581.38979
484.008	2642.6216
484.217	2775.60567
484.426	2944.3964
484.636	2817.81179
484.845	3005.56008
485.054	2988.6886
485.263	3045.62593
485.472	3129.95669
485.682	3214.2618
485.891	3304.86021
486.1	3075.14456
486.309	3165.78955
486.518	3346.98828
486.727	3273.25965
486.936	3353.30689
487.146	3281.68684
487.355	3511.22052
487.564	3595.39943
487.773	3610.12768
487.982	3534.37266
488.191	3622.75116
488.4	3742.64015
488.609	3801.51002
488.818	3708.99339
489.027	3912.8999
489.236	3870.87256
489.445	4045.2331
489.654	4009.53213
489.863	4110.31948
490.072	4070.43019
490.281	4257.21456
490.49	4290.77596
490.698	4202.66563
490.907	4385.13782
491.116	4475.26467
491.325	4240.43181
491.534	4383.04137
491.743	4318.04055
491.952	4580.01214
492.16	4634.45886
492.369	4695.17003
492.578	4611.42555
492.787	4636.55266
492.996	4605.14327
493.204	4829.08613
493.413	4714.00758
493.622	4743.30681
493.831	4954.54772
494.039	4971.2697
494.248	4799.79992
494.457	5161.37806
494.665	5040.23224
494.874	5332.51951
495.083	5023.51636
495.291	5065.30329
495.5	5236.53267
495.709	5246.96842
495.917	5272.01183
496.126	5426.37169
496.335	5345.03588
496.543	5447.22128
496.752	5353.37965
496.96	5705.56047
497.169	5447.22128
497.377	5566.01897
497.586	5561.85193
497.794	5905.31591
498.003	5651.42261
498.211	5620.18198
498.42	5613.93321
498.628	5948.98342
498.837	5743.03118
499.045	5986.40444
499.254	5894.91735
499.462	5984.3257
499.671	6019.66116
499.879	6017.58279
500.087	6019.66116
500.296	6293.79943
500.504	5965.61593
500.713	6173.39512
500.921	6032.13088
501.129	6285.49822
501.338	6160.935
501.546	6322.85074
501.754	6219.075
501.962	6266.81911
502.171	6389.23655
502.379	6540.58995
502.587	6316.62585
502.795	6503.28142
503.004	6443.15744
503.212	6588.25104
503.42	6702.17373
503.628	6565.45813
503.837	6505.35432
504.045	6695.96156
504.253	6849.13498
504.461	6919.47013
504.669	6964.96715
504.877	6737.37213
505.085	6849.13498
505.294	7041.46027
505.502	6995.98159
505.71	7113.79036
505.918	6884.30583
506.126	7064.19554
506.334	6929.81132
506.542	7297.59273
506.75	6983.57642
506.958	7380.1437
507.166	7299.65693
507.374	7369.82674
507.582	7153.04381
507.79	7332.68117
507.998	7072.46224
508.206	7429.65753
508.414	7404.90218
508.622	7483.28342
508.83	7272.82059
509.037	7604.91894
509.245	7648.19498
509.453	7707.94177
509.661	7489.47008
509.869	7481.22115
510.077	7409.02829
510.285	7611.1018
510.492	7637.89201
510.7	7639.95265
510.908	7609.04087
511.116	7825.32355
511.324	7749.13611
511.531	7928.23436
511.739	7668.79933
511.947	7792.38114
512.155	7954.98273
512.362	8066.05443
512.57	7922.06117
512.778	7975.55605
512.985	7889.13434
513.193	7788.26297
513.401	7843.85132
513.608	8212.00364
513.816	8111.28893
514.024	7996.12732
514.231	8078.39208
514.439	8364.01345
514.646	8265.42474
514.854	8608.23985
515.061	8127.73542
515.269	8511.8129
515.477	8503.60442
515.684	8242.82514
515.892	8228.44233
516.099	8454.34715
516.307	8283.91356
516.514	8612.34221
516.722	8538.48835
516.929	8884.98318
517.136	8290.07615
517.344	8661.56463
517.551	8435.87284
517.759	8669.76732
517.966	8530.28086
518.173	8718.97728
518.381	8854.2503
518.588	8815.31618
518.796	8737.42828
519.003	9046.77703
519.21	8899.32381
519.418	8901.3724
519.625	9036.54017
519.832	9030.39784
520.039	9065.20229
520.247	9016.06513
520.454	8786.6237
520.661	9145.02891
520.868	8884.98318
521.076	9235.05849
521.283	9147.0754
521.49	9097.95484
521.697	9116.37621
521.904	9539.69271
522.112	9261.65188
522.319	9517.21523
522.526	9210.50822
522.733	9513.12821
522.94	9570.34071
523.147	9570.34071
523.354	9762.32167
523.561	9750.07162
523.768	9801.1099
523.975	9850.0978
524.183	9611.19921
524.39	9733.73738
524.597	9666.34826
524.804	9848.05681
525.011	9786.82013
525.218	10056.16249
525.425	9929.68493
525.632	9807.23385
525.838	9988.85068
526.045	10066.35989
526.252	9788.86157
526.459	10284.50086
526.666	10007.20999
526.873	10280.4249
527.08	10227.43245
527.287	10459.71715
527.494	10035.76661
527.701	10398.60622
527.907	10129.57593
528.114	10518.78003
528.321	10221.31734
528.528	10498.41473
528.735	10398.60622
528.941	10608.37238
529.148	10488.23161
529.355	10565.61542
529.562	10516.74356
529.768	10923.79457
529.975	10488.23161
530.182	10655.19516
530.388	10337.48352
530.595	11106.81617
530.802	10634.83823
531.008	10765.10163
531.215	10885.14508
531.422	10826.14575
531.628	10990.91291
531.835	11021.41723
532.042	10866.83599
532.248	10994.9803
532.455	10933.96481
532.661	11033.61826
532.868	10915.65818
533.074	11165.77099
533.281	11216.58698
533.487	11066.1524
533.694	11245.04108
533.9	11503.07028
534.107	11151.54134
534.313	11320.23153
534.52	11529.47386
534.726	11738.61637
534.933	11188.13083
535.139	11407.59771
535.345	11267.39646
535.552	11499.00805
535.758	11312.1035
535.965	11413.69234
536.171	11543.69051
536.377	11714.25516
536.584	11521.34985
536.79	11639.13339
536.996	11976.07376
537.203	11913.1688
537.409	11681.77158
537.615	11681.77158
537.821	11805.60323
538.028	11769.06611
538.234	11693.95319
538.44	11969.98653
538.646	11738.61637
538.853	12170.82819
539.059	11720.34558
539.265	11756.88645
539.471	12026.79795
539.677	12118.08918
539.883	11890.8458
540.09	12022.7402
540.296	12038.97103
540.502	12339.15426
540.708	12207.33686
540.914	12326.98775
541.12	12560.1371
541.326	12529.73121
541.532	12460.80587
541.738	12511.487
541.944	12404.03814
542.15	12560.1371
542.356	12568.2451
542.562	12941.11094
542.768	12444.58705
542.974	12833.72895
543.18	12941.11094
543.386	12805.36135
543.592	13036.32425
543.798	13212.54185
544.004	12837.78137
544.21	12955.29236
544.415	12750.64932
544.621	13091.01629
544.827	12779.01904
545.033	13078.86281
545.239	13107.22067
545.445	13350.2515
545.651	13030.24713
545.856	13149.75572
546.062	13170.00979
546.268	13334.05138
546.474	12930.9812
546.679	12993.78351
546.885	13009.98976
547.091	13271.27339
547.297	13044.427
547.502	13410.99965
547.708	13425.17371
547.914	13568.92865
548.119	13212.54185
548.325	13524.38685
548.531	13281.39915
548.736	13498.06587
548.942	13544.63334
549.147	13437.32275
549.353	13546.65796
549.559	13568.92865
549.764	13645.8605
549.97	13688.37338
550.175	13603.34614
550.381	14018.30958
550.586	13872.58007
550.792	13783.5162
550.997	13678.2514
551.203	13864.48358
551.408	13696.47091
551.614	14240.92823
551.819	14139.74117
552.025	14066.8832
552.23	13994.02225
552.435	14000.09412
552.641	14232.83345
552.846	14147.83632
553.052	14234.85714
553.257	14218.6675
553.462	14346.15772
553.668	14271.28339
553.873	14378.53508
554.078	14591.00222
554.283	14421.02976
554.489	14534.34575
554.694	14370.44078
554.899	14621.35352
555.105	14702.28919
555.31	14702.28919
555.515	14534.34575
555.72	14483.75879
555.925	14558.62721
556.131	14969.36801
556.336	14253.07034
556.541	14702.28919
556.746	14880.34291
556.951	14686.10218
557.156	14625.40034
557.361	14799.41009
557.567	15017.92682
557.772	14682.05542
557.977	14524.22843
558.182	14898.55266
558.387	14760.96662
558.592	14912.71577
558.797	14939.01864
559.002	15104.92768
559.207	14985.5543
559.412	15270.83597
559.617	14803.45676
559.822	14969.36801
560.027	14985.5543
560.232	15115.04404
560.437	15102.90441
560.642	15299.16185
560.847	15141.34656
561.051	15026.01994
561.256	15021.97339
561.461	15347.72062
561.666	14995.67072
561.871	15321.41793
562.076	15009.8337
562.281	15252.62649
562.485	15173.71889
562.69	15386.16311
562.895	15021.97339
563.1	15374.02336
563.305	15390.2097
563.509	15357.83705
563.714	15562.19151
563.919	15673.47644
564.123	15422.58245
564.328	15738.22525
564.533	15374.02336
564.737	15204.06795
564.942	15345.69733
565.147	15681.56999
565.351	15345.69733
565.556	15726.08477
565.761	15584.4483
565.965	15459.00195
566.17	15685.61677
566.374	15873.79649
566.579	15665.38291
566.784	15796.90473
566.988	16023.53826
567.193	16100.43567
567.397	15760.48288
567.602	16084.24656
567.806	15675.49983
568.011	15910.21951
568.215	16023.53826
568.42	15867.72603
568.624	16272.45139
568.828	16124.71952
569.033	15879.86697
569.237	16205.66737
569.442	16017.4675
569.646	15910.21951
569.85	16110.55391
570.055	16373.64306
570.259	15908.196
570.463	16533.53588
570.668	16276.49897
570.872	16333.16583
571.076	16333.16583
571.281	16533.53588
571.485	16697.49051
571.689	16778.46135
571.893	16359.47594
572.098	16697.49051
572.302	16412.09714
572.506	16444.48008
572.71	16357.45208
572.914	16557.82454
573.119	16677.24839
573.323	16484.95949
573.527	16404.00149
573.731	16679.27259
573.935	16638.78901
574.139	16501.15149
574.343	16476.86354
574.547	16598.30633
574.751	16549.72828
574.955	16790.60731
575.159	16897.9005
575.364	16881.70485
575.568	16853.36284
575.772	16944.46393
575.976	16930.2923
576.18	16928.2678
576.383	16897.9005
576.587	17082.13794
576.791	17007.22553
576.995	17564.10204
577.199	17126.68225
577.403	17057.84162
577.607	17468.91056
577.811	17325.12375
578.015	17331.19894
578.219	17236.0241
578.422	17061.89098
578.626	17059.86629
578.83	17288.6732
579.034	17045.6936
579.238	16976.8567
579.442	17586.38192
579.645	17292.72321
579.849	17118.58318
580.053	17329.17387
580.257	17353.47486
580.46	17300.82327
580.664	17594.4838
580.868	17450.6832
581.071	17659.30065
581.275	17527.6449
581.479	17849.71991
581.682	17521.56881
581.886	17754.50655
582.09	17566.12747
582.293	17661.32623
582.497	17811.2285
582.7	18007.75045
582.904	17914.55037
583.107	17805.15102
583.311	17284.6232
583.515	17772.73831
583.718	17916.57638
583.922	17774.76408
584.125	17788.94456
584.329	18252.94343
584.532	17827.43526
584.735	18032.06474
584.939	18058.40581
585.142	18293.47637
585.346	17841.61635
585.549	18129.32709
585.753	18242.81043
585.956	18256.99666
586.159	17963.17557
586.363	18232.67752
586.566	18415.08419
586.769	18287.39634
586.973	18512.38028
587.176	18682.66982
587.379	18496.16365
587.582	18834.73744
587.786	18378.60042
587.989	18816.48815
588.192	18524.54291
588.395	18702.94422
588.599	18429.27265
588.802	18769.85254
589.005	18329.9573
589.208	18810.40513
589.411	18479.94727
589.615	18646.17689
589.818	18855.01481
590.021	18739.43913
590.224	18893.54292
590.427	18905.70999
590.63	18988.8555
590.833	18763.76978
591.036	18502.24486
591.239	19203.84864
591.442	18678.61499
591.645	19076.06419
591.848	18960.46359
592.051	19449.32168
592.254	19029.41675
592.457	19234.27591
592.66	19015.22013
592.863	19096.34635
593.066	19207.90556
593.269	19009.13592
593.472	19061.86691
593.675	19309.33378
593.878	19234.27591
594.081	19080.12059
594.284	19213.99096
594.486	19477.72743
594.689	19705.00283
594.892	19366.13809
595.095	19512.22122
595.298	19220.0764
595.5	19451.35063
595.703	19855.19574
595.906	19591.35858
596.109	19727.32735
596.311	19676.59054
596.514	19506.13399
596.717	19702.97336
596.92	19816.63051
597.122	19771.97791
597.325	19761.82988
597.528	19847.07662
597.73	20204.38168
597.933	19680.64939
598.136	20076.46774
598.338	19796.33362
598.541	20163.77227
598.743	20076.46774
598.946	20204.38168
599.148	20549.62947
599.351	20200.32066
599.554	19903.91189
599.756	20031.80331
599.959	19974.96062
600.161	20009.47186
600.363	20019.62246
600.566	19901.88201
600.768	19934.36072
600.971	20104.89162
601.173	20066.31655
601.376	20334.34309
601.578	20230.7787
601.78	20265.29895
601.983	20070.37701
602.185	20423.70153
602.388	20423.70153
602.59	20557.75441
602.792	20182.0463
602.995	20314.03548
603.197	20119.10386
603.399	20641.03885
603.601	20202.35117
603.804	20563.84815
604.006	20641.03885
604.208	20632.91323
604.41	20515.09924
604.613	20929.54138
604.815	20184.07677
605.017	20610.56812
605.219	20299.82041
605.421	20496.81902
605.623	20490.72569
605.826	20793.40654
606.028	20602.44275
606.23	20019.62246
606.432	20301.85112
606.634	20823.88287
606.836	20681.66794
607.038	20992.5354
607.24	20740.58309
607.442	20624.78767
607.644	20407.45394
607.846	21012.8569
608.048	20937.66942
608.25	20641.03885
608.452	20645.10168
608.654	20809.66047
608.856	20710.1093
609.058	20441.9804
609.26	20795.43826
609.462	20647.1331
609.664	21016.92125
609.866	20671.51051
610.067	20401.36116
610.269	20710.1093
610.471	20506.97466
610.673	21025.04999
610.875	20411.51581
611.077	20783.24796
611.278	20795.43826
611.48	20915.31747
611.682	20866.55131
611.884	21222.19207
612.085	20643.07026
612.287	21142.92415
612.489	20791.37481
612.69	21226.25726
612.892	21283.17158
613.094	21094.14697
613.295	20827.94646
613.497	20917.34944
613.699	21124.63244
613.9	21260.812
614.102	20984.40692
614.304	21112.43814
614.505	20929.54138
614.707	21179.50858
614.908	20880.77453
615.11	21277.07346
615.311	21114.47051
615.513	21065.6947
615.714	21175.44358
615.916	21185.60611
616.117	20962.05393
616.319	21155.11882
616.52	20864.51944
616.722	21348.22039
616.923	20996.59967
617.124	21226.25726
617.326	21142.92415
617.527	21273.00807
617.729	21277.07346
617.93	21279.10616
618.131	21216.09432
618.333	20805.59696
618.534	20980.3427
618.735	20955.95775
618.937	20913.2855
619.138	21132.76205
619.339	21041.30768
619.54	20850.29645
619.742	20894.99795
619.943	21110.40577
620.144	21059.59789
620.345	20951.89365
620.546	21049.43662
620.748	21415.30628
620.949	21191.70368
621.15	21057.56563
621.351	21037.24323
621.552	21236.42029
621.753	20901.09376
621.954	21362.45037
622.155	20858.42385
622.356	21216.09432
622.558	21146.98902
622.759	21435.6362
622.96	21185.60611
623.161	21240.48554
623.362	21319.76103
623.563	22104.70899
623.764	21791.47376
623.965	21584.05665
624.166	21480.36342
624.366	21500.69461
624.567	21307.5644
624.768	21533.22535
624.969	21018.95343
625.17	21081.95305
625.371	21207.96404
625.572	21277.07346
625.773	21157.15127
625.973	21360.4175
626.174	21120.56765
626.375	21549.49109
626.576	21779.27164
626.777	21482.39652
626.977	21252.68137
627.178	21411.24035
627.379	21478.33032
627.58	21799.60859
627.78	21606.4232
627.981	21451.90042
628.182	21600.32318
628.382	21689.79363
628.583	21514.92669
628.784	21919.60451
628.984	21319.76103
629.185	21834.18231
629.386	21323.8266
629.586	21543.39141
629.787	21596.25652
629.987	21352.28608
630.188	21748.76692
630.388	21850.45269
630.589	21431.57018
630.79	21468.1649
630.99	21577.95676
631.191	21742.66608
631.391	21801.64231
631.591	21516.95985
631.792	21189.67115
631.992	21972.4883
632.193	21547.45786
632.393	21720.29665
632.594	21567.79036
632.794	21236.42029
632.994	21704.02826
633.195	21795.54117
633.395	21518.99303
633.595	21610.4899
633.796	21651.15773
633.996	22084.36631
634.196	22489.2553
634.397	22607.29019
634.597	21952.14807
634.797	22204.39354
634.997	21699.9612
635.198	21732.4981
635.398	21624.72346
635.598	22253.22189
635.798	21893.16358
635.998	22129.1207
636.199	21986.72668
636.399	22123.01772
636.599	21793.50747
636.799	22212.53145
636.999	22066.05821
637.199	22143.36112
637.399	22017.23813
637.599	22110.81187
637.799	22017.23813
637.999	22403.78927
638.199	22106.74328
638.399	22818.96861
638.599	22025.37466
638.799	22230.84196
638.999	22375.30202
639.199	22243.04914
639.399	22310.19097
639.599	22359.02391
639.799	21990.79482
639.999	22363.09341
640.199	22279.67146
640.399	22359.02391
640.599	21956.21609
640.799	22698.87719
640.998	22381.40637
641.198	22373.26724
641.398	22011.13577
641.598	22536.0608
641.798	22399.71962
641.997	22153.53296
642.197	22397.6848
642.397	22672.41799
642.597	22222.70392
642.796	22680.55922
642.996	22257.29101
643.196	22363.09341
643.395	22385.47596
643.595	22566.58715
643.795	22519.78041
643.994	22782.32928
644.194	22495.36026
644.394	22637.8184
644.593	22236.94553
644.793	22285.7753
644.992	22493.32527
645.192	22652.06517
645.392	22656.13571
645.591	22572.69252
645.791	22521.81545
645.99	22808.79091
646.19	22967.57283
646.389	23065.29498
646.589	22660.20626
646.788	22678.52391
646.987	22442.45169
647.187	22835.25312
647.386	22363.09341
647.586	22788.43576
647.785	22660.20626
647.984	22751.79735
648.184	22615.43097
648.383	22845.43105
648.582	22759.93912
648.782	22914.64323
648.981	22615.43097
649.18	22582.8682
649.38	22639.85364
649.579	22926.85755
649.778	22698.87719
649.977	23077.51079
650.177	22888.17928
650.376	22737.54938
650.575	22735.51397
650.774	22924.82182
650.973	22989.96681
651.173	22652.06517
651.372	22914.64323
651.571	23193.56687
651.77	22953.32233
651.969	22845.43105
652.168	22780.29379
652.367	22989.96681
652.566	23093.79872
652.765	23448.11248
652.964	23144.69985
653.163	22778.25831
653.362	23244.47199
653.561	22878.001
653.76	22904.46472
653.959	23016.43295
654.158	23364.61605
654.357	22900.39334
654.556	22723.30159
654.755	23270.94346
654.954	22955.35811
655.153	22829.14641
655.352	23195.60303
655.551	22983.85932
655.749	23063.25902
655.948	23234.29081
656.147	22998.11018
656.346	23209.85629
656.545	23118.23101
656.743	23366.65249
656.942	22853.57346
657.141	23323.88801
657.34	23303.52447
657.538	23354.43392
657.737	23283.16124
657.936	23979.75825
658.135	23415.52788
658.333	23311.66984
658.532	22975.71605
658.731	23197.6392
658.929	23156.91643
659.128	23148.77203
659.326	23327.96076
659.525	23248.54449
659.724	22910.57182
659.922	22821.00417
660.121	22831.18198
660.319	22784.36477
660.518	22603.21982
660.716	22969.60863
660.915	22741.62021
661.113	23576.42206
661.312	23126.37521
661.51	23582.53234
661.709	23515.32073
661.907	23456.25876
662.105	23051.04336
662.304	23289.27017
662.502	22983.85932
662.701	23529.57746
662.899	23165.06088
663.097	22922.7861
663.296	22861.71592
663.494	23128.41127
663.692	23193.56687
663.891	23378.87117
664.089	22985.89515
664.287	23319.81528
664.485	23103.97878
664.684	23325.92438
664.882	23303.52447
665.08	23399.23588
665.278	23529.57746
665.476	23307.59715
665.675	23551.9812
665.873	23503.1008
666.071	23458.29533
666.269	23354.43392
666.467	23382.94408
666.665	23332.03352
666.863	22932.96476
667.061	23480.69788
667.259	23112.12289
667.457	23010.32533
667.655	23016.43295
667.853	23148.77203
668.051	23372.76181
668.249	23670.11608
668.447	23126.37521
668.645	23409.41836
668.843	23517.3574
669.041	23384.98055
669.239	23342.21547
669.437	22928.89328
669.635	23450.14905
669.833	23615.12099
670.031	23209.85629
670.229	23093.79872
670.426	23380.90762
670.624	23409.41836
670.822	23505.13745
671.02	23690.48518
671.218	23531.61415
671.415	23547.90776
671.613	23038.82781
671.811	23097.87073
672.009	23004.21774
672.206	23372.76181
672.404	22967.57283
672.602	23332.03352
672.799	23046.97149
672.997	23458.29533
673.195	23067.33094
673.392	23299.45179
673.59	23016.43295
673.788	23169.13312
673.985	22924.82182
674.183	23572.34855
674.38	23165.06088
674.578	23087.69072
674.775	22843.39546
674.973	23042.89964
675.17	22865.78717
675.368	22957.39389
675.565	22937.03624
675.763	22808.79091
675.96	22849.50225
676.158	23038.82781
676.355	23175.24152
676.553	23686.41134
676.75	22839.32428
676.947	22792.50676
677.145	22869.85843
677.342	23040.86372
677.539	22932.96476
677.737	23332.03352
677.934	22711.08932
678.131	22534.02574
678.329	22556.41161
678.526	22717.19544
678.723	22709.05396
678.92	23167.097
679.118	22790.47126
679.315	22924.82182
679.512	23028.64827
679.709	23211.89248
679.906	22994.03849
680.104	23226.14592
680.301	22947.21502
680.498	23016.43295
680.695	22578.79791
680.892	23038.82781
681.089	22794.54227
681.286	23053.07929
681.483	22544.20108
681.68	23038.82781
681.877	22745.69106
682.075	22639.85364
682.272	23073.43884
682.469	23234.29081
682.665	22570.65739
682.862	22770.11641
683.059	22570.65739
683.256	22434.31212
683.453	22513.67532
683.65	22411.92862
683.847	22440.41679
684.044	22434.31212
684.241	22259.32558
684.438	22538.09587
684.635	22271.53306
684.831	22316.29497
685.028	22137.25806
685.225	22517.74538
685.422	22261.36015
685.619	22725.33697
685.815	22029.44295
686.012	22505.53526
686.209	22251.18733
686.405	22489.2553
686.602	22338.67659
686.799	21878.92643
686.996	22365.12817
687.192	22297.98307
687.389	22005.03345
687.586	22281.70607
687.782	22171.8425
687.979	22515.71035
688.175	21882.99417
688.372	22135.22372
688.568	22082.33206
688.765	22238.98007
688.962	22497.39525
689.158	22564.55204
689.355	22300.01771
689.551	22061.98979
689.748	22078.26358
689.944	22011.13577
690.14	22076.22934
690.337	22129.1207
690.533	22326.46838
690.73	21939.94412
690.926	22446.52149
691.123	22025.37466
691.319	22098.60615
691.515	22037.57957
691.712	21610.4899
691.908	21821.9797
692.104	21514.92669
692.301	21606.4232
692.497	21427.50418
692.693	22369.1977
692.889	21923.6724
693.086	21866.7233
693.282	21750.80054
693.478	22409.89378
693.674	22029.44295
693.87	22002.99935
694.067	22173.87691
694.263	21756.90143
694.459	21756.90143
694.655	21811.81096
694.851	21588.12326
695.047	21543.39141
695.243	21630.82362
695.439	21153.08636
695.635	21472.23106
695.831	21506.79405
696.027	21626.75684
696.224	21488.49585
696.42	21488.49585
696.615	22084.36631
696.811	21390.91091
697.007	21372.61475
697.203	21177.47608
697.399	21291.30245
697.595	21350.25323
697.791	21134.79446
697.987	20992.5354
698.183	21437.66921
698.379	21472.23106
698.575	21846.38507
698.77	21484.42963
698.966	21350.25323
699.162	21010.82473
699.358	21244.5508
699.554	21228.28986
699.749	21240.48554
699.945	21205.93148
700.141	21226.25726
700.337	21228.28986
700.532	20992.5354
700.728	21165.28115
700.924	21309.59716
701.119	21557.62406
701.315	21321.79381
701.511	21248.61608
701.706	21165.28115
701.902	20665.41611
702.097	21136.82688
702.293	21083.98536
702.489	21392.94383
702.684	21321.79381
702.88	21118.53527
703.075	21295.36792
703.271	21431.57018
703.466	21130.72964
703.662	21427.50418
703.857	21309.59716
704.053	21142.92415
704.248	21338.05624
704.443	21362.45037
704.639	21010.82473
704.834	21370.58187
705.03	21297.40065
705.225	21425.47119
705.42	21000.66395
705.616	21169.34611
705.811	20480.57022
706.006	21083.98536
706.202	20899.06182
706.397	20685.73095
706.592	20797.46999
706.787	20894.99795
706.983	20706.0462
707.178	21051.46887
707.373	20825.91466
707.568	21183.57359
707.763	20720.26713
707.959	20951.89365
708.154	21275.04077
708.349	21081.95305
708.544	21118.53527
708.739	20506.97466
708.934	20699.95158
709.129	20974.24641
709.324	20269.36023
709.519	20821.85109
709.714	20555.72317
709.909	20673.54199
710.104	20376.99042
710.299	20614.63083
710.494	20610.56812
710.689	20848.26462
710.884	20675.57347
711.079	20687.76245
711.274	20220.62592
711.469	20750.74123
711.664	20626.81906
711.859	20955.95775
712.054	20230.7787
712.249	20291.6976
712.443	20155.65059
712.638	20393.23752
712.833	20021.65259
713.028	20651.19596
713.223	20379.0213
713.417	20764.96279
713.612	20498.85014
713.807	20624.78767
714.002	20488.69459
714.196	20525.25507
714.391	20376.99042
714.586	20523.2239
714.78	20519.16156
714.975	20517.1304
715.17	20167.83314
715.364	20496.81902
715.559	20488.69459
715.754	20531.34861
715.948	20281.54419
716.143	20490.72569
716.337	20236.87042
716.532	20840.1373
716.726	20903.12571
716.921	20606.50542
717.115	20504.94352
717.31	20468.3838
717.504	20771.05781
717.699	20472.44592
717.893	20279.51352
718.088	20498.85014
718.282	20464.32169
718.476	20531.34861
718.671	20249.05397
718.865	20448.07343
719.059	20259.20705
719.254	20366.83613
719.448	19845.04685
719.642	19966.84051
719.837	19879.55352
720.031	20190.1682
720.225	19556.86203
720.419	20023.68272
720.614	19508.16306
720.808	19554.83286
721.002	19556.86203
721.196	19974.96062
721.39	19889.70277
721.585	19810.5414
721.779	19875.49384
721.973	19926.24094
722.167	19284.99007
722.361	19483.81448
722.555	19536.5705
722.749	19735.44549
722.943	19485.8435
723.137	19372.22446
723.331	19268.76126
723.525	19495.9887
723.719	19416.85896
723.913	19664.4141
724.107	19597.44634
724.301	19518.30848
724.495	19124.74207
724.689	19358.02299
724.883	19307.30512
725.077	19234.27591
725.271	19282.96145
725.465	19254.56126
725.659	19161.25202
725.853	19510.19214
726.046	19035.50108
726.24	19094.31812
726.434	18883.4038
726.628	19548.74537
726.822	19211.96249
727.015	19672.53171
727.209	19185.59273
727.403	19037.52919
727.596	19368.16687
727.79	19246.44707
727.984	19319.47717
728.177	19358.02299
728.371	19508.16306
728.565	19124.74207
728.758	19337.73553
728.952	19526.42489
729.146	19132.85528
729.339	19453.37959
729.533	19278.90423
729.726	19209.93402
729.92	19035.50108
730.113	19031.44485
730.307	19031.44485
730.5	19230.21889
730.694	19757.7707
730.887	19319.47717
731.081	19530.48312
731.274	19603.53413
731.468	18806.3498
731.661	19500.0468
731.854	18940.18413
732.048	19132.85528
732.241	18875.29258
732.435	19368.16687
732.628	19057.81059
732.821	19218.04792
733.014	19092.28989
733.208	19094.31812
733.401	18861.0981
733.594	18698.88931
733.788	18607.65795
733.981	18919.90508
734.174	18771.88013
734.367	18765.79736
734.56	18542.78712
734.754	18855.01481
734.947	18814.46047
735.14	18824.59891
735.333	19291.07594
735.526	19132.85528
735.719	19128.79867
735.912	19051.72613
736.105	19177.47909
736.298	19049.69798
736.491	19209.93402
736.684	18952.35176
736.877	18857.04257
737.07	18755.6595
737.263	18810.40513
737.456	19149.08189
737.649	19130.82697
737.842	19132.85528
738.035	18840.82061
738.228	18623.87628
738.421	18640.09486
738.614	18802.29448
738.807	18520.48868
739	18719.16403
739.192	18859.07034
739.385	19031.44485
739.578	18812.4328
739.771	18800.26683
739.964	18329.9573
740.156	18571.16762
740.349	18169.85554
740.542	18522.51579
740.735	18506.29901
740.927	18354.27859
741.12	18143.51188
741.313	18370.49308
741.505	18603.60341
741.698	18696.86186
741.891	18256.99666
742.083	18885.43162
742.276	19059.83875
742.468	18934.10038
742.661	18737.4116
742.854	19100.40284
743.046	18812.4328
743.239	18759.71464
743.431	18717.13654
743.624	18682.66982
743.816	18417.1111
744.009	18479.94727
744.201	18058.40581
744.393	18198.22632
744.586	17981.41054
744.778	17892.2645
744.971	17892.2645
745.163	17946.96695
745.355	18171.882
745.548	17948.99301
745.74	18159.72329
745.932	17936.83667
746.125	17851.74581
746.317	17801.09938
746.509	17963.17557
746.702	17987.48893
746.894	17914.55037
747.086	18040.16962
747.278	18165.80263
747.471	18143.51188
747.663	18402.9228
747.855	18094.87906
748.047	17819.33185
748.239	17786.91876
748.431	17904.42038
748.623	17809.20267
748.815	18070.56343
749.008	18259.02328
749.2	18123.24795
749.392	17953.04515
749.584	18119.19521
749.776	18133.37987
749.968	17930.75855
750.16	17955.07123
750.352	17843.64224
750.544	17890.23853
750.736	17685.63346
750.928	17744.37791
751.12	17673.47979
751.311	17880.10875
751.503	18147.56471
751.695	18224.57126
751.887	17963.17557
752.079	18044.22208
752.271	17709.94117
752.463	17673.47979
752.654	17460.80948
752.846	17821.35769
753.038	17620.81524
753.23	17786.91876
753.421	17726.14657
753.613	17598.53475
753.805	17598.53475
753.997	17614.7387
754.188	17697.78725
754.38	17774.76408
754.572	17600.56023
754.763	17786.91876
754.955	17442.58223
755.146	17776.78985
755.338	17416.25443
755.53	17487.13817
755.721	17341.32431
755.913	17391.95231
756.104	17227.92441
756.296	17519.54345
756.487	17181.35212
756.679	17387.902
756.87	17509.41671
757.062	17410.17886
757.253	17440.557
757.445	17244.12383
757.636	17319.04859
757.827	17067.96504
758.019	17096.31098
758.21	16958.63568
758.401	16869.55821
758.593	16806.80206
758.784	16677.24839
758.975	17025.44713
759.167	16974.83213
759.358	16889.80265
759.549	16966.73388
759.74	16701.53896
759.932	16770.36409
760.123	16810.85077
760.314	16867.53378
760.505	16685.34521
760.696	16408.04931
760.888	16567.9449
761.079	16515.31959
761.27	16843.24082
761.461	16359.47594
761.652	16820.97259
761.843	16669.15161
762.034	17003.17632
762.225	16596.28222
762.416	16762.26687
762.607	16493.05547
762.798	16472.81558
762.989	16622.59583
763.18	16827.04571
763.371	16448.52799
763.562	16466.74366
763.753	16132.81419
763.944	16270.4276
764.135	16408.04931
764.326	16608.42691
764.517	16436.3843
764.708	16511.27155
764.899	16335.18967
765.089	16248.16607
765.28	16523.4157
765.471	16312.9275
765.662	15936.52527
765.853	16272.45139
766.043	15851.53818
766.234	16213.7623
766.425	15845.46775
766.615	15979.01967
766.806	16264.35626
766.997	16167.21681
767.187	16108.53026
767.378	16094.36474
767.569	16037.70341
767.759	15815.11579
767.95	16061.9867
768.141	16005.32603
768.331	15987.11391
768.522	15809.04543
768.712	15843.44428
768.903	15552.07481
769.093	15293.09201
769.284	15792.85784
769.474	15244.5334
769.665	15311.30153
769.855	15697.75713
770.046	16078.17567
770.236	16021.51467
770.426	15732.155
770.617	15450.90871
770.807	15570.28488
770.998	15321.41793
771.188	15117.06731
771.378	15517.67816
771.569	15926.40764
771.759	15485.30502
771.949	15541.95813
772.139	15487.32833
772.33	15183.83524
772.52	15406.39606
772.71	15426.62906
772.9	15129.20694
773.09	15369.97678
773.281	15171.69562
773.471	15378.06995
773.661	15313.32481
773.851	15357.83705
774.041	15165.62581
774.231	15195.97487
774.421	15351.76719
774.611	15268.81269
774.802	14941.04193
774.992	14941.04193
775.182	14943.06523
775.372	14771.08335
775.562	14760.96662
775.752	14829.76002
775.942	14623.37693
776.131	14629.44716
776.321	14366.39362
776.511	14675.98527
776.701	14382.58223
776.891	14637.54078
777.081	14601.11935
777.271	14574.81475
777.461	14455.42972
777.651	14439.24156
777.84	14261.16505
778.03	14172.12158
778.22	14129.62218
778.41	14449.35917
778.599	14451.38269
778.789	14481.73529
778.979	14396.74717
779.169	14639.56419
779.358	14206.52519
779.548	14295.56722
779.738	14070.93094
779.927	13880.67652
780.117	14164.02653
780.307	14133.66978
780.496	14117.47932
780.686	14166.05029
780.875	13939.37444
781.065	14398.77073
781.254	14208.54891
781.444	14340.08692
781.633	13864.48358
781.823	14040.57266
782.012	14115.4555
782.202	14058.78769
782.391	13660.03162
782.581	13886.74882
782.77	13850.31462
782.96	13953.54257
783.149	13423.14886
783.338	13749.10363
783.528	14016.28565
783.717	13923.18213
783.906	13781.49195
784.096	13959.61458
784.285	13619.54226
784.474	13613.46874
784.663	13382.65097
784.853	13457.57083
785.042	13457.57083
785.231	13536.53478
785.42	13439.34757
785.61	13625.61575
785.799	13244.94591
785.988	13479.84329
786.177	13340.12646
786.366	13498.06587
786.555	13666.10491
786.744	13315.82593
786.933	13321.90112
787.122	13364.4264
787.312	13593.22345
787.501	13398.85031
787.69	13510.21409
787.879	13651.93385
788.068	13275.3237
788.257	13163.93362
788.445	13528.43617
788.634	13467.69473
788.823	13319.87606
789.012	13406.94989
789.201	13042.40132
789.39	13056.58097
789.579	12813.46649
789.768	12912.74733
789.957	13038.34994
790.145	13180.13665
790.334	12827.65027
790.523	12746.59641
790.712	12624.99831
790.9	12685.80002
791.089	12320.9044
791.278	12977.57693
791.467	12969.47352
791.655	12868.17387
791.844	12675.66677
792.033	12876.27833
792.221	12679.72009
792.41	12582.43386
792.599	12233.70276
792.787	12596.62231
792.976	12679.72009
793.164	12661.47998
793.353	12641.21262
793.541	12803.33505
793.73	12671.61343
793.918	12756.72864
794.107	12825.62403
794.295	12584.4608
794.484	12673.64011
794.672	12620.94466
794.861	12606.75673
795.049	12477.02427
795.238	12304.68183
795.426	12724.30501
795.614	12243.84316
795.803	12355.37589
795.991	12004.47992
796.179	12353.34821
796.368	12404.03814
796.556	12260.06744
796.744	12324.95998
796.932	12112.00358
797.121	11959.84097
797.309	12180.96972
797.497	12371.59707
797.685	12326.98775
797.874	12264.12343
798.062	11898.96337
798.25	11803.57346
798.438	12278.31919
798.626	12144.45932
798.814	11866.49229
799.002	11730.49611
799.19	12112.00358
799.378	12225.59031
799.566	11860.40372
799.755	11939.54925
799.943	11925.34456
800.131	12162.71482
800.318	12369.56945
800.506	11915.19811
800.694	12093.74638
800.882	11878.66919
801.07	12008.53782
801.258	11929.40309
801.446	12053.17259
801.634	11765.00626
801.822	12049.11504
802.01	11659.43778
802.197	11911.13948
802.385	11639.13339
802.573	11722.37571
802.761	11750.7965
802.949	11750.7965
803.136	11527.44287
803.324	11870.55129
803.512	11972.01561
803.699	11829.95976
803.887	11712.22501
804.075	11801.54368
804.262	11503.07028
804.45	11892.8752
804.638	11561.96839
804.825	11937.52003
805.013	11805.60323
805.201	12093.74638
805.388	11779.21559
805.576	12069.40247
805.763	11789.36485
805.951	12296.57038
806.138	11890.8458
806.326	11953.75354
806.513	11760.94637
806.701	11852.28552
806.888	11641.16387
807.075	12099.83218
807.263	11846.19678
807.45	11846.19678
807.638	11775.15582
807.825	11803.57346
808.012	11704.10429
808.2	11789.36485
808.387	11809.66273
808.574	11937.52003
808.761	11659.43778
808.949	11892.8752
809.136	11726.43593
809.323	12071.43117
809.51	11813.72221
809.698	12105.91792
809.885	11679.74128
810.072	11671.61999
810.259	11460.41496
810.446	11722.37571
810.633	11829.95976
810.82	11551.8141
811.008	11689.89269
811.195	11805.60323
811.382	11746.73649
811.569	11665.52893
811.756	11614.76693
811.943	11941.57846
812.13	11978.10283
812.317	12083.60322
812.504	11990.27704
812.691	12187.05456
812.878	11980.13188
813.064	12114.03212
813.251	11965.92833
813.438	12010.56675
813.625	11838.07834
813.812	11872.58078
813.999	12132.28864
814.186	12103.88935
814.372	12028.82682
814.559	12331.04328
814.746	11972.01561
814.933	11986.219
815.12	12022.7402
815.306	11911.13948
815.493	11600.55255
815.68	12205.30866
815.866	11817.78165
816.053	12227.61843
816.24	11909.11015
816.426	12221.53404
816.613	11874.61026
816.799	11850.25595
816.986	11736.58632
817.173	11616.79752
817.359	11661.46817
817.546	12217.47774
817.732	11728.46602
817.919	12097.80359
818.105	11858.37418
818.292	11846.19678
818.478	11903.0221
818.665	11976.07376
818.851	11760.94637
819.037	11866.49229
819.224	11663.49856
819.41	11671.61999
819.597	11492.91463
819.783	11610.70572
819.969	11590.39915
820.156	11566.03004
820.342	11860.40372
820.528	11762.97632
820.714	11366.96456
820.901	11318.19954
821.087	11324.29548
821.273	11608.67511
821.459	11338.519
821.646	11387.28163
821.832	11645.22481
822.018	11464.47755
822.204	11490.88348
822.39	11588.36844
822.576	11417.75538
822.762	11563.99922
822.948	11350.71019
823.134	11584.30699
823.32	11557.9067
823.507	11450.2583
823.693	11147.47563
823.879	11318.19954
824.065	11123.08047
824.25	11234.87913
824.436	10997.01398
824.622	11535.56677
824.808	11180.00013
824.994	11106.81617
825.18	11053.95243
825.366	11064.1191
825.552	10848.52596
825.738	11413.69234
825.923	11025.48428
826.109	11145.44276
826.295	10543.21672
826.481	11031.58478
826.667	10874.97348
826.852	11344.61464
827.038	10917.69229
827.224	11295.84696
827.409	10872.93912
827.595	11200.32658
827.781	10765.10163
827.966	10748.8214
828.152	10803.76414
828.338	10852.59493
828.523	10708.11748
828.709	10901.41905
828.894	10683.69281
829.08	10826.14575
829.266	10541.1804
829.451	10826.14575
829.637	10530.9986
829.822	10811.90307
830.008	10614.48007
830.193	10689.79914
830.378	10524.88937
830.564	10736.61073
830.749	10763.06664
830.935	10602.26458
831.12	10300.80418
831.305	10575.79615
831.491	10339.52114
831.676	10347.67146
831.861	10370.08377
832.047	10518.78003
832.232	10504.52446
832.417	10396.56898
832.602	10231.50912
832.788	10590.04864
832.973	10231.50912
833.158	10394.53174
833.343	9997.01052
833.528	10386.38262
833.714	10280.4249
833.899	10239.66229
834.084	9954.16879
834.269	10017.40911
834.454	10084.71433
834.639	10135.6929
834.824	10043.92513
835.009	9956.20902
835.194	10011.28968
835.379	9978.65056
835.564	9590.77074
835.749	10207.04829
835.934	9868.46605
836.119	9784.77868
836.304	9492.69216
836.489	9858.26162
836.674	9412.97617
836.859	9684.72877
837.044	9831.72834
837.228	9864.38432
837.413	9788.86157
837.598	9774.57117
837.783	9831.72834
837.968	9750.07162
838.152	9731.69553
838.337	9725.56989
838.522	9384.35416
838.707	9670.43293
838.891	9692.89749
839.076	9854.17974
839.261	9447.72718
839.445	9517.21523
839.63	9509.04113
839.815	9384.35416
839.999	9572.38379
840.184	9705.1501
840.368	9239.14996
840.553	9592.81366
840.737	9480.42975
840.922	9478.38596
841.106	9619.37015
841.291	9482.47353
841.475	9345.50488
841.66	9490.64846
841.844	9327.10051
842.029	9361.86319
842.213	9120.46966
842.397	9363.90791
842.582	8858.34825
842.766	9292.33305
842.951	9267.78841
843.135	9353.68417
843.319	9210.50822
843.504	8989.44496
843.688	9085.67316
843.872	9110.23591
844.056	8850.15228
844.241	8956.6776
844.425	8944.38867
844.609	8901.3724
844.793	8880.8857
844.977	8759.97749
845.161	8657.46317
845.346	9016.06513
845.53	8860.3972
845.714	9110.23591
845.898	8565.16061
846.082	8985.34929
846.266	8925.95409
846.45	9108.18911
846.634	8868.59281
846.818	8768.17665
847.002	8739.4783
847.186	8981.25354
847.37	8659.51391
847.554	8497.44786
847.738	8353.74589
847.922	8526.177
848.106	8593.88103
848.29	8183.23289
848.473	8269.53351
848.657	8520.02107
848.841	8452.29453
849.025	8600.03492
849.209	8288.02197
849.392	8351.69232
849.576	8442.03111
849.76	8559.00576
849.944	8133.90253
850.127	8544.64377
850.311	8115.40067
850.495	8419.44992
850.678	8226.38756
850.862	8394.81323
851.046	8177.06722
851.229	8688.22231
851.413	8327.04796
851.596	8384.54712
851.78	7983.7848
851.964	8460.50491
852.147	8041.37695
852.331	8253.09798
852.514	7924.11892
852.698	8123.62392
852.881	7961.15494
853.065	8255.15249
853.248	7889.13434
853.431	8037.26375
853.615	8004.35526
853.798	8061.94172
853.982	7847.96837
854.165	8014.63972
854.348	7800.61725
854.532	7858.26064
854.715	7917.94561
854.898	7747.0766
855.081	7555.44909
855.265	7710.00169
855.448	7508.0289
855.631	7930.29205
855.814	7609.04087
855.997	7847.96837
856.181	7815.02962
856.364	7854.1438
856.547	7677.04048
856.73	7604.91894
856.913	7485.34566
857.096	7609.04087
857.279	7592.55263
857.462	7652.31602
857.645	7584.30799
857.828	7415.21729
858.011	7526.58598
858.194	7695.58182
858.377	7295.5285
858.56	7551.32604
858.743	7245.98054
858.926	7565.75632
859.109	7202.61565
859.292	7107.59171
859.475	7060.06206
859.658	7287.27139
859.841	6787.05273
860.023	7084.86161
860.206	6969.1027
860.389	7295.5285
860.572	6824.30454
860.755	7184.02771
860.937	7113.79036
861.12	7041.46027
861.303	7039.3933
861.486	7051.79482
861.668	6766.35408
861.851	6859.48003
862.034	6735.30182
862.216	7097.26018
862.399	6724.94992
862.581	6880.16842
862.764	6503.28142
862.947	6780.84337
863.129	6704.24441
863.312	6538.51745
863.494	6451.45156
863.677	6799.47082
863.859	6598.61053
864.042	6602.75416
864.224	6412.05115
864.406	6892.58037
864.589	6430.71555
864.771	6708.38569
864.954	6432.78926
865.136	6716.66799
865.318	6181.7014
865.501	6596.53868
865.683	6484.62435
865.865	6524.00931
866.048	6119.39516
866.23	6563.38591
866.412	6246.06233
866.594	6289.64887
866.777	6100.69917
866.959	6335.2999
867.141	6011.34755
867.323	6291.72416
867.505	6318.70083
867.687	6447.30455
867.869	6270.97019
868.052	6383.01389
868.234	5980.16813
868.416	6320.7758
868.598	6090.31168
868.78	6270.97019
868.962	6206.61798
869.144	6403.75526
869.326	6295.87468
869.508	6275.12117
869.69	6173.39512
869.872	6198.31283
870.054	6077.84592
870.236	6229.45521
870.417	6194.16011
870.599	6210.77042
870.781	6237.75896
870.963	6515.71843
871.145	6129.781
871.327	6248.13811
871.508	5830.43311
871.69	6154.70463
871.872	6048.75585
872.054	6285.49822
872.235	5688.90437
872.417	6221.15109
872.599	6090.31168
872.78	6302.10027
872.962	5955.22079
873.144	6287.57355
873.325	5990.56186
873.507	6198.31283
873.689	5930.27004
873.87	5915.71388
874.052	5799.22291
874.233	5980.16813
874.415	5924.03183
874.596	6246.06233
874.778	5647.2575
874.959	5959.37891
875.141	5751.35697
875.322	5759.68238
875.503	5541.01529
875.685	6067.45714
875.866	5786.73735
876.048	5755.51972
876.229	5751.35697
876.41	5759.68238
876.592	5676.4113
876.773	5872.03844
876.954	5670.16445
877.136	5743.03118
877.317	5869.95839
877.498	5992.64054
877.679	5566.01897
877.86	5732.62342
878.042	5607.68424
878.223	5707.64238
878.404	5561.85193
878.585	6005.11209
878.766	5944.82506
878.947	6152.62779
879.128	5811.70763
879.309	6206.61798
879.49	5638.927
879.672	6109.00873
879.853	5661.83498
880.034	6154.70463
880.215	5817.94967
880.396	5944.82506
880.576	5861.63799
880.757	5957.29986
880.938	5892.83756
881.119	6079.9236
881.3	5986.40444
881.481	6071.61272
881.662	5811.70763
881.843	6005.11209
882.023	5622.26485
882.204	5919.8729
882.385	5659.75255
882.566	5982.24693
882.747	5670.16445
882.927	6173.39512
883.108	5892.83756
883.289	6044.59975
883.469	5847.07637
883.65	6023.81783
883.831	5811.70763
884.011	5982.24693
884.192	5971.85273
884.373	5953.14169
884.553	5963.53695
884.734	6003.03356
884.914	5878.27842
885.095	6277.19663
885.275	5826.27205
885.456	6044.59975
885.636	5930.27004
885.817	6212.8466
885.997	5770.08861
886.178	6059.14569
886.358	5849.15667
886.538	5953.14169
886.719	5946.90425
886.899	5847.07637
887.08	6054.98982
887.26	6092.38922
887.44	5817.94967
887.621	5903.23624
887.801	5849.15667
887.981	6324.92566
888.161	5903.23624
888.342	5828.35259
888.522	5803.38458
888.702	5813.78833
888.882	5743.03118
889.062	6005.11209
889.242	5688.90437
889.423	5830.43311
889.603	5865.79824
889.783	6115.24066
889.963	5730.5418
890.143	6054.98982
890.323	5711.80612
890.503	6285.49822
890.683	5903.23624
890.863	5832.5136
891.043	5768.00741
891.223	6003.03356
891.403	5747.19413
891.583	6138.08925
891.763	5815.86901
891.943	6131.8581
892.122	5878.27842
892.302	6013.42599
892.482	5661.83498
892.662	5859.55783
892.842	5693.06854
893.022	5853.31721
893.201	5701.39659
893.381	6196.23648
893.561	5892.83756
893.741	6102.77659
893.92	5578.51954
894.1	5913.63433
894.28	5499.33495
894.459	5836.67451
894.639	5611.85024
894.819	5453.47569
894.998	5538.9315
895.178	5707.64238
895.357	5547.26653
895.537	5778.41317
895.716	5486.82901
895.896	5763.84494
896.075	5347.12186
896.255	5605.6012
896.434	5424.28661
896.614	5588.93604
896.793	5257.40358
896.973	5449.30611
897.152	5196.8715
897.331	5320.00229
897.511	5094.54864
897.69	5303.31136
897.87	5405.51976
898.049	5253.22959
898.228	5021.42677
898.407	5201.04676
898.587	5136.31981
898.766	5595.18565
898.945	5132.14312
899.124	5148.84936
899.304	5010.97847
899.483	5278.27216
899.662	5190.60844
899.841	5082.01548
900.02	5092.45984
900.199	5359.63724
900.378	5027.69547
900.557	5084.10439
900.737	4818.62728
900.916	4985.90021
901.095	4866.73326
901.274	5008.88875
901.453	4726.56494
901.632	4764.23211
901.811	4552.78312
901.989	4649.11501
902.168	4741.21415
902.347	4774.69391
902.526	4431.25429
902.705	4546.49897
902.884	4580.01214
903.063	4718.19346
903.242	4600.95497
903.42	4567.44537
903.599	4544.40421
903.778	4542.30943
903.957	4303.36007
904.135	4406.10116
904.314	4292.87336
904.493	4385.13782
904.672	4125.01363
904.85	4154.39886
905.029	4078.82856
905.207	4278.19108
905.386	3746.84565
905.565	4032.63344
905.743	3866.66938
905.922	3925.50654
906.1	3586.98287
906.279	3986.42834
906.457	3694.27138
906.636	4036.83341
906.814	3879.27867
906.993	3790.99867
907.171	3418.59001
907.35	3740.53737
907.528	3408.06162
907.707	3629.06265
907.885	3437.53999
908.063	3618.54341
908.242	3393.32113
908.42	3418.59001
908.598	3382.79168
908.777	3271.15282
908.955	3365.94365
909.133	3456.48852
909.311	3140.49625
909.49	3357.51921
909.668	3231.11967
909.846	3551.20919
910.024	3281.68684
910.202	3538.5819
910.38	3163.68186
910.559	3679.54842
910.737	3586.98287
910.915	3736.33176
911.093	3576.46176
911.271	3677.44507
911.449	3471.22526
911.627	3692.16815
911.805	3435.4345
911.983	3666.92801
912.161	3382.79168
912.339	3736.33176
912.517	3416.48436
912.695	3509.11567
912.872	3389.1094
913.05	3660.61754
913.228	3342.77578
913.406	3306.96677
913.584	3420.69563
913.762	3601.71165
913.939	3384.8976
914.117	3881.38015
914.295	3334.35058
914.473	3589.08704
914.65	3336.45691
914.828	3384.8976
915.006	3210.04717
915.184	3401.74437
915.361	3125.74076
915.539	3119.41673
915.716	3013.99546
915.894	3568.04453
916.072	3159.46644
916.249	3342.77578
916.427	3309.07332
916.604	3290.11376
916.782	3068.8194
916.959	3340.66951
917.137	2967.5979
917.314	3500.69609
917.492	3258.51142
917.669	3467.01485
917.847	3277.47328
918.024	3528.05866
918.201	3068.8194
918.379	3355.41306
918.556	3140.49625
918.733	3226.9053
918.911	3098.33562
919.088	3163.68186
919.265	2836.80274
919.442	2834.69269
919.62	2805.15053
919.797	3087.79446
919.974	2769.27428
920.151	2805.15053
920.328	2674.28912
920.506	2771.38475
920.683	2667.95585
920.86	2819.92195
921.037	2651.06655
921.214	2779.82652
921.391	2822.0321
921.568	2957.05198
921.745	2667.95585
921.922	2986.5796
922.099	2534.93133
922.276	2686.95534
922.453	2686.95534
922.63	3104.66012
922.807	2619.39695
922.984	2847.35278
923.161	2477.90649
923.338	2828.36246
923.514	2572.94323
923.691	2674.28912
923.868	2541.26691
924.045	2511.69999
924.222	2532.81945
924.399	2653.17775
924.575	2425.09848
924.752	2518.03595
924.929	2522.25986
925.105	2539.15507
925.282	2304.67187
925.459	2509.58798
925.635	2264.52261
925.812	2556.04952
925.989	2230.71015
926.165	2450.44717
926.342	2034.13322
926.518	2234.93683
926.695	2108.12166
926.871	2239.16348
927.048	2015.10623
927.224	2186.32787
927.401	2029.90505
927.577	2199.00891
927.754	1903.04807
927.93	2268.74901
928.107	1884.01772
928.283	2082.7552
928.459	1996.07871
928.636	2076.41341
928.812	2074.29947
928.988	2108.12166
929.165	1822.69491
929.341	2008.76378
929.517	1964.36502
929.693	2032.01914
929.87	1759.25354
930.046	1841.72656
930.222	1659.85547
930.398	1960.13642
930.574	1915.73473
930.751	1875.55965
930.927	1638.70612
931.103	1778.28634
931.279	1602.75169
931.455	1831.15347
931.631	1518.15108
931.807	1689.46413
931.983	1463.15985
932.159	1805.77759
932.335	1566.7967
932.511	1490.65551
932.687	1412.39863
932.863	1507.57587
933.039	1215.70529
933.215	1499.1157
933.391	1249.54368
933.566	1416.62872
933.742	1312.99246
933.918	1414.51368
934.094	1154.37539
934.27	1315.10746
934.445	991.55261
934.621	1224.16482
934.797	1086.70503
934.973	1033.84112
935.148	928.12481
935.324	1101.50751
935.5	866.81764
935.675	1067.67363
935.851	780.15429
936.027	1042.29912
936.202	773.81369
936.378	801.29026
936.553	647.02168
936.729	803.40391
936.904	666.03791
937.08	611.10482
937.255	596.31658
937.431	598.42915
937.606	556.18028
937.782	581.52897
937.957	450.58257
938.133	395.68674
938.308	387.2422
938.483	446.35944
938.659	433.6904
938.834	416.79924
939.009	416.79924
939.185	442.13636
939.36	336.58062
939.535	368.24296
939.71	307.03267
939.886	239.50798
940.061	315.47458
940.236	336.58062
940.411	288.03942
940.586	262.71742
940.761	195.20561
940.937	277.48826
941.112	193.0962
941.287	302.81182
941.462	245.8376
941.637	150.91217
941.812	226.84928
941.987	252.16739
942.162	165.67563
942.337	188.87742
942.512	307.03267
942.687	260.60738
942.862	222.62986
943.037	131.93208
943.212	127.71452
943.386	245.8376
943.561	142.47636
943.736	180.44012
943.911	205.753
944.086	264.82749
944.26	188.87742
944.435	193.0962
944.61	197.31505
944.785	243.72771
944.959	197.31505
945.134	235.28834
945.309	256.38735
945.483	148.80318
945.658	136.14973
945.833	56.02946
946.007	138.25859
946.182	176.22159
946.357	134.0409
946.531	237.39815
946.706	220.52019
946.88	165.67563
947.055	218.41053
947.229	188.87742
947.404	190.9868
947.578	178.33085
947.752	115.06236
947.927	176.22159
948.101	239.50798
948.276	193.0962
948.45	184.65873
948.624	212.08167
948.799	180.44012
948.973	188.87742
949.147	117.171
949.321	231.06877
949.496	176.22159
949.67	283.8189
949.844	245.8376
950.018	153.02117
950.193	283.8189
950.367	205.753
950.541	123.49705
950.715	277.48826
950.889	222.62986
951.063	298.59104
951.237	150.91217
951.411	235.28834
951.585	197.31505
951.759	110.84515
951.933	233.17854
952.107	245.8376
952.281	180.44012
952.455	233.17854
952.629	186.76807
952.803	247.94751
952.977	100.3025
953.151	180.44012
953.325	161.45739
953.499	290.14971
953.672	134.0409
953.846	290.14971
954.02	214.19127
954.194	262.71742
954.368	180.44012
954.541	226.84928
954.715	188.87742
954.889	237.39815
955.062	224.73956
955.236	142.47636
955.41	190.9868
955.583	247.94751
955.757	245.8376
955.93	216.30089
956.104	182.54942
956.278	140.36746
956.451	184.65873
956.625	159.34831
956.798	190.9868
956.972	247.94751
957.145	180.44012
957.319	317.58511
957.492	243.72771
957.665	222.62986
957.839	235.28834
958.012	159.34831
958.185	239.50798
958.359	188.87742
958.532	218.41053
958.705	256.38735
958.879	247.94751
959.052	256.38735
959.225	197.31505
959.398	264.82749
959.572	205.753
959.745	239.50798
959.918	203.64348
960.091	239.50798
960.264	91.86877
960.438	172.00315
960.611	169.89395
960.784	209.9721
960.957	131.93208
961.13	262.71742
961.303	205.753
961.476	264.82749
961.649	218.41053
961.822	216.30089
961.995	165.67563
962.168	172.00315
962.341	214.19127
962.514	176.22159
962.686	123.49705
962.859	155.13019
963.032	241.61784
963.205	203.64348
963.378	165.67563
963.551	163.5665
963.723	150.91217
963.896	218.41053
964.069	214.19127
964.242	212.08167
964.414	252.16739
964.587	258.49735
964.76	212.08167
964.932	216.30089
965.105	231.06877
965.278	201.53399
965.45	150.91217
965.623	273.26793
965.795	269.04767
965.968	216.30089
966.14	180.44012
966.313	150.91217
966.485	112.95374
966.658	222.62986
966.83	123.49705
967.003	220.52019
967.175	100.3025
967.348	172.00315
967.52	144.58528
967.692	159.34831
967.865	182.54942
968.037	233.17854
968.209	91.86877
968.382	180.44012
968.554	121.38835
968.726	117.171
968.898	110.84515
969.071	205.753
969.243	214.19127
969.415	172.00315
969.587	121.38835
969.759	146.69422
969.932	226.84928
970.104	123.49705
970.276	115.06236
970.448	222.62986
970.62	148.80318
970.792	115.06236
970.964	77.11062
971.136	66.56975
971.308	140.36746
971.48	117.171
971.652	174.11236
971.824	121.38835
971.996	112.95374
972.168	184.65873
972.339	201.53399
972.511	148.80318
972.683	184.65873
972.855	138.25859
973.027	205.753
973.199	220.52019
973.37	155.13019
973.542	209.9721
973.714	188.87742
973.886	216.30089
974.057	142.47636
974.229	157.23924
974.401	157.23924
974.572	60.24551
974.744	112.95374
974.915	66.56975
975.087	60.24551
975.259	64.46165
975.43	131.93208
975.602	83.43541
975.773	89.7604
975.945	163.5665
976.116	146.69422
976.288	91.86877
976.459	112.95374
976.63	174.11236
976.802	62.35357
976.973	47.59764
977.145	62.35357
977.316	102.41098
977.487	93.97717
977.659	87.65205
977.83	28.62739
978.001	131.93208
978.172	117.171
978.344	75.0024
978.515	83.43541
978.686	64.46165
978.857	96.08559
979.028	89.7604
979.2	77.11062
979.371	91.86877
979.542	102.41098
979.713	148.80318
979.884	104.51949
980.055	121.38835
980.226	83.43541
980.397	37.05838
980.568	45.48974
980.739	53.92147
980.91	104.51949
981.081	142.47636
981.252	146.69422
981.423	45.48974
981.594	70.78603
981.765	100.3025
981.936	104.51949
982.106	125.60578
982.277	127.71452
982.448	77.11062
982.619	1.22931
982.79	56.02946
982.96	112.95374
983.131	70.78603
983.302	43.38186
983.472	20.19678
983.643	157.23924
983.814	75.0024
983.984	127.71452
984.155	53.92147
984.326	26.51971
984.496	96.08559
984.667	62.35357
984.837	37.05838
985.008	102.41098
985.178	53.92147
985.349	87.65205
985.519	83.43541
985.69	26.51971
985.86	56.02946
986.031	70.78603
986.201	-5.09275
986.371	108.73657
986.542	70.78603
986.712	72.8942
986.882	104.51949
987.053	11.76656
987.223	93.97717
987.393	79.21886
987.563	83.43541
987.734	83.43541
987.904	93.97717
988.074	56.02946
988.244	64.46165
988.414	125.60578
988.585	-2.98542
988.755	142.47636
988.925	134.0409
989.095	49.70556
989.265	24.41204
989.435	89.7604
989.605	66.56975
989.775	119.27966
989.945	39.16618
990.115	81.32712
990.285	70.78603
990.455	45.48974
990.625	20.19678
990.795	93.97717
990.965	5.44413
991.134	32.84284
991.304	79.21886
991.474	28.62739
991.644	60.24551
991.814	-2.98542
991.984	3.33671
992.153	96.08559
992.323	104.51949
992.493	30.7351
992.662	53.92147
992.832	79.21886
993.002	-0.87807
993.171	13.87408
993.341	75.0024
993.511	49.70556
993.68	11.76656
993.85	32.84284
994.019	47.59764
994.189	3.33671
994.358	98.19403
994.528	45.48974
994.697	20.19678
994.867	41.27401
995.036	87.65205
995.206	-21.95051
995.375	11.76656
995.544	28.62739
995.714	53.92147
995.883	-26.16471
996.052	53.92147
996.222	75.0024
996.391	47.59764
996.56	77.11062
996.73	49.70556
996.899	3.33671
997.068	66.56975
997.237	28.62739
997.406	37.05838
997.576	13.87408
997.745	125.60578
997.914	41.27401
998.083	-5.09275
998.252	45.48974
998.421	37.05838
998.59	22.3044
998.759	79.21886
998.928	-17.73622
999.097	-2.98542
999.266	66.56975
999.435	47.59764
999.604	64.46165
999.773	66.56975
999.942	43.38186
1000.111	70.78603
1000.28	-30.3788
1000.448	32.84284
1000.617	112.95374
1000.786	26.51971
1000.955	3.33671
1001.124	15.98162
1001.292	43.38186
1001.461	45.48974
1001.63	7.55158
1001.798	32.84284
1001.967	79.21886
1002.136	15.98162
1002.304	37.05838
1002.473	-68.30117
1002.642	5.44413
1002.81	70.78603
1002.979	37.05838
1003.147	37.05838
1003.316	30.7351
1003.484	37.05838
1003.653	77.11062
1003.821	-21.95051
1003.99	1.22931
1004.158	-7.20006
1004.327	-7.20006
1004.495	24.41204
1004.663	37.05838
1004.832	13.87408
1005	81.32712
1005.168	5.44413
1005.337	-17.73622
1005.505	-7.20006
1005.673	20.19678
1005.842	64.46165
1006.01	98.19403
1006.178	37.05838
1006.346	106.62802
1006.514	72.8942
1006.683	37.05838
1006.851	53.92147
1007.019	11.76656
1007.187	49.70556
1007.355	47.59764
1007.523	51.8135
1007.691	-17.73622
1007.859	7.55158
1008.027	3.33671
1008.195	-32.48582
1008.363	-30.3788
1008.531	3.33671
1008.699	70.78603
1008.867	45.48974
1009.035	11.76656
1009.203	-5.09275
1009.37	47.59764
1009.538	28.62739
1009.706	-0.87807
1009.874	-59.87469
1010.042	112.95374
1010.209	91.86877
1010.377	70.78603
1010.545	11.76656
1010.713	1.22931
1010.88	9.65906
1011.048	39.16618
1011.216	39.16618
1011.383	43.38186
1011.551	-36.69976
1011.718	72.8942
1011.886	79.21886
1012.054	5.44413
1012.221	15.98162
1012.389	100.3025
1012.556	11.76656
1012.724	37.05838
1012.891	20.19678
1013.058	-0.87807
1013.226	22.3044
1013.393	20.19678
1013.561	93.97717
1013.728	15.98162
1013.895	30.7351
1014.063	30.7351
1014.23	-5.09275
1014.397	45.48974
1014.565	72.8942
1014.732	20.19678
1014.899	70.78603
1015.066	20.19678
1015.233	56.02946
1015.401	-17.73622
1015.568	85.54372
1015.735	-17.73622
1015.902	11.76656
1016.069	3.33671
1016.236	-21.95051
1016.403	49.70556
1016.57	-2.98542
1016.737	3.33671
1016.904	39.16618
1017.071	9.65906
1017.238	-9.30734
1017.405	11.76656
1017.572	-15.62904
1017.739	-2.98542
1017.906	22.3044
1018.073	45.48974
1018.24	77.11062
1018.407	28.62739
1018.573	20.19678
1018.74	22.3044
1018.907	-19.84338
1019.074	66.56975
1019.241	5.44413
1019.407	43.38186
1019.574	3.33671
1019.741	9.65906
1019.907	-47.2342
1020.074	47.59764
1020.241	53.92147
1020.407	-7.20006
1020.574	-9.30734
1020.74	11.76656
1020.907	20.19678
1021.073	3.33671
1021.24	32.84284
1021.406	13.87408
1021.573	47.59764
1021.739	45.48974
1021.906	49.70556
1022.072	18.08919
1022.239	-30.3788
1022.405	-5.09275
1022.571	47.59764
1022.738	15.98162
1022.904	-64.08798
1023.07	37.05838
1023.237	62.35357
1023.403	-47.2342
1023.569	62.35357
1023.735	-5.09275
1023.902	45.48974
1024.068	5.44413
1024.234	-30.3788
1024.4	47.59764
1024.566	106.62802
1024.732	49.70556
1024.898	1.22931
1025.065	13.87408
1025.231	26.51971
1025.397	24.41204
1025.563	5.44413
1025.729	30.7351
1025.895	24.41204
1026.061	3.33671
1026.227	37.05838
1026.392	89.7604
1026.558	-0.87807
1026.724	79.21886
1026.89	24.41204
1027.056	79.21886
1027.222	5.44413
1027.388	70.78603
1027.553	7.55158
1027.719	13.87408
1027.885	20.19678
1028.051	-21.95051
1028.216	-17.73622
1028.382	-17.73622
1028.548	-15.62904
1028.713	24.41204
1028.879	-19.84338
1029.045	-2.98542
1029.21	41.27401
1029.376	34.9506
1029.541	87.65205
1029.707	-11.4146
1029.873	-15.62904
1030.038	-55.66129
1030.204	11.76656
1030.369	24.41204
1030.534	89.7604
1030.7	72.8942
1030.865	-68.30117
1031.031	30.7351
1031.196	41.27401
1031.361	24.41204
1031.527	30.7351
1031.692	-5.09275
1031.857	72.8942
1032.023	-40.91361
1032.188	-34.5928
1032.353	49.70556
1032.518	37.05838
1032.684	-2.98542
1032.849	3.33671
1033.014	13.87408
1033.179	11.76656
1033.344	7.55158
1033.509	-19.84338
1033.674	91.86877
1033.839	7.55158
1034.004	45.48974
1034.17	24.41204
1034.335	-5.09275
1034.5	-2.98542
1034.664	24.41204
1034.829	20.19678
1034.994	91.86877
1035.159	34.9506
1035.324	41.27401
1035.489	28.62739
1035.654	-55.66129
1035.819	64.46165
1035.984	15.98162
1036.148	30.7351
1036.313	20.19678
1036.478	39.16618
1036.643	-36.69976
1036.807	15.98162
1036.972	-64.08798
1037.137	28.62739
1037.301	9.65906
1037.466	-30.3788
1037.631	13.87408
1037.795	45.48974
1037.96	49.70556
1038.124	-2.98542
1038.289	3.33671
1038.454	-28.27177
1038.618	11.76656
1038.783	-21.95051
1038.947	64.46165
1039.111	58.13747
1039.276	66.56975
1039.44	-5.09275
1039.605	-19.84338
1039.769	32.84284
1039.933	47.59764
1040.098	-13.52183
1040.262	30.7351
1040.426	20.19678
1040.591	47.59764
1040.755	-61.98135
1040.919	68.67788
1041.083	-45.12736
1041.248	66.56975
1041.412	43.38186
1041.576	45.48974
1041.74	-17.73622
1041.904	11.76656
1042.068	64.46165
1042.232	15.98162
1042.397	-2.98542
1042.561	15.98162
1042.725	-47.2342
1042.889	13.87408
1043.053	-5.09275
1043.217	51.8135
1043.381	24.41204
1043.544	-5.09275
1043.708	-13.52183
1043.872	43.38186
1044.036	20.19678
1044.2	-2.98542
1044.364	-45.12736
1044.528	11.76656
1044.691	13.87408
1044.855	-53.55456
1045.019	-43.0205
1045.183	-0.87807
1045.346	-26.16471
1045.51	-7.20006
1045.674	9.65906
1045.837	58.13747
1046.001	-30.3788
1046.165	-5.09275
1046.328	-2.98542
1046.492	-51.44779
1046.655	49.70556
1046.819	32.84284
1046.983	1.22931
1047.146	-13.52183
1047.31	3.33671
1047.473	93.97717
1047.636	45.48974
1047.8	-5.09275
1047.963	30.7351
1048.127	-59.87469
1048.29	-7.20006
