Data from Scatter_Coeff_Baseline_USB4F045381__17__0017.txt Node

Date: Thu Feb 13 19:18:40 EST 2025
User: mmckonesweet
Spectrometer: USB4F04538
Trigger mode: 4
Integration Time (sec): 2.400000E-3
Scans to average: 1
Electric dark correction enabled: true
Nonlinearity correction enabled: true
Boxcar width: 0
XAxis mode: Wavelengths
Number of Pixels in Spectrum: 3648
>>>>>Begin Spectral Data<<<<<
345.52	20.54805
345.736	20.54805
345.952	20.54805
346.168	-114.28848
346.384	-65.84349
346.6	35.30189
346.816	28.97868
347.032	-23.70644
347.248	-27.92059
347.464	-11.06339
347.68	22.65567
347.896	-21.59933
348.112	33.19413
348.328	66.92111
348.544	-25.81353
348.76	-53.20343
348.975	-23.70644
349.191	69.02924
349.407	-0.52684
349.623	-38.45555
349.839	-8.95613
350.055	7.90283
350.27	22.65567
350.486	-15.27784
350.702	10.01031
350.918	-4.74153
351.133	-53.20343
351.349	-107.97035
351.565	1.58054
351.781	-89.01455
351.996	-19.49219
352.212	-63.73688
352.428	-154.2977
352.644	26.87099
352.859	-21.59933
353.075	-4.74153
353.291	-36.3486
353.506	-34.24164
353.722	-38.45555
353.938	-27.92059
354.153	10.01031
354.369	-27.92059
354.584	12.11781
354.8	-84.80186
355.016	-36.3486
355.231	-80.58907
355.447	85.8951
355.662	52.16483
355.878	-80.58907
356.093	22.65567
356.309	3.68794
356.524	7.90283
356.74	-17.38502
356.955	-42.66935
357.171	18.44046
357.386	12.11781
357.602	-8.95613
357.817	12.11781
358.033	-4.74153
358.248	12.11781
358.464	-19.49219
358.679	-23.70644
358.895	43.73317
359.11	-25.81353
359.325	-84.80186
359.541	-78.48264
359.756	7.90283
359.972	-27.92059
360.187	5.79537
360.402	-30.02763
360.618	58.48881
360.833	-42.66935
361.048	-17.38502
361.264	-118.50043
361.479	12.11781
361.694	-8.95613
361.909	-44.77622
362.125	47.94895
362.34	7.90283
362.555	-42.66935
362.77	-0.52684
362.986	-8.95613
363.201	-34.24164
363.416	-40.56246
363.631	-36.3486
363.847	-34.24164
364.062	3.68794
364.277	-67.95008
364.492	37.40968
364.707	-32.13465
364.922	-42.66935
365.138	-74.26969
365.353	-21.59933
365.568	-21.59933
365.783	-32.13465
365.998	-78.48264
366.213	-4.74153
366.428	10.01031
366.643	22.65567
366.858	7.90283
367.073	-42.66935
367.288	-80.58907
367.503	-19.49219
367.718	-11.06339
367.933	50.05688
368.148	-34.24164
368.363	-4.74153
368.578	3.68794
368.793	14.22533
369.008	-38.45555
369.223	20.54805
369.438	73.24557
369.653	14.22533
369.868	-44.77622
370.083	-63.73688
370.298	-72.16318
370.513	-13.17063
370.728	56.38079
370.943	-30.02763
371.157	-53.20343
371.372	58.48881
371.587	7.90283
371.802	22.65567
372.017	14.22533
372.232	-0.52684
372.446	-36.3486
372.661	-32.13465
372.876	-46.88306
373.091	-21.59933
373.306	-32.13465
373.52	-36.3486
373.735	-67.95008
373.95	-17.38502
374.165	-72.16318
374.379	73.24557
374.594	-2.6342
374.809	10.01031
375.023	1.58054
375.238	-38.45555
375.453	12.11781
375.667	7.90283
375.882	-57.41689
376.097	-30.02763
376.311	-2.6342
376.526	41.62532
376.741	45.84105
376.955	-4.74153
377.17	-53.20343
377.384	-11.06339
377.599	-19.49219
377.813	-25.81353
378.028	41.62532
378.242	26.87099
378.457	16.33288
378.672	-27.92059
378.886	-19.49219
379.101	-25.81353
379.315	83.78679
379.53	-11.06339
379.744	10.01031
379.958	113.30518
380.173	-30.02763
380.387	-19.49219
380.602	58.48881
380.816	-25.81353
381.031	-30.02763
381.245	24.76332
381.459	-15.27784
381.674	45.84105
381.888	-30.02763
382.103	-32.13465
382.317	7.90283
382.531	-8.95613
382.746	12.11781
382.96	-36.3486
383.174	-74.26969
383.388	54.2728
383.603	16.33288
383.817	-34.24164
384.031	7.90283
384.246	12.11781
384.46	-32.13465
384.674	62.70491
384.888	-2.6342
385.103	-78.48264
385.317	3.68794
385.531	3.68794
385.745	-32.13465
385.959	3.68794
386.174	-15.27784
386.388	-17.38502
386.602	-42.66935
386.816	-21.59933
387.03	50.05688
387.244	-4.74153
387.458	5.79537
387.672	-103.75813
387.887	-17.38502
388.101	10.01031
388.315	3.68794
388.529	20.54805
388.743	-61.63024
388.957	-120.60637
389.171	-46.88306
389.385	-30.02763
389.599	-0.52684
389.813	-97.43961
390.027	-78.48264
390.241	-8.95613
390.455	24.76332
390.669	3.68794
390.883	-53.20343
391.097	-15.27784
391.311	-11.06339
391.525	-36.3486
391.738	52.16483
391.952	3.68794
392.166	-21.59933
392.38	-21.59933
392.594	62.70491
392.808	-53.20343
393.022	-2.6342
393.236	-2.6342
393.449	39.51749
393.663	-42.66935
393.877	-38.45555
394.091	-38.45555
394.305	-46.88306
394.518	12.11781
394.732	37.40968
394.946	12.11781
395.16	5.79537
395.373	100.65391
395.587	-105.86425
395.801	-67.95008
396.015	16.33288
396.228	-38.45555
396.442	7.90283
396.656	45.84105
396.869	-70.05664
397.083	16.33288
397.297	-78.48264
397.51	7.90283
397.724	-78.48264
397.938	-48.98987
398.151	-118.50043
398.365	26.87099
398.578	-44.77622
398.792	-13.17063
399.005	35.30189
399.219	3.68794
399.433	-34.24164
399.646	28.97868
399.86	28.97868
400.073	1.58054
400.287	-122.71228
400.5	-34.24164
400.714	-27.92059
400.927	37.40968
401.141	-23.70644
401.354	-19.49219
401.567	-63.73688
401.781	-91.12085
401.994	-8.95613
402.208	-91.12085
402.421	5.79537
402.635	-21.59933
402.848	-51.09666
403.061	-46.88306
403.275	-126.92402
403.488	-42.66935
403.701	-63.73688
403.915	-17.38502
404.128	7.90283
404.341	-55.31017
404.555	-32.13465
404.768	1.58054
404.981	45.84105
405.195	5.79537
405.408	43.73317
405.621	-15.27784
405.834	-4.74153
406.048	16.33288
406.261	-21.59933
406.474	-8.95613
406.687	-4.74153
406.9	-48.98987
407.114	64.813
407.327	5.79537
407.54	-55.31017
407.753	-11.06339
407.966	-27.92059
408.179	-19.49219
408.392	35.30189
408.605	-42.66935
408.819	50.05688
409.032	47.94895
409.245	-19.49219
409.458	24.76332
409.671	12.11781
409.884	-51.09666
410.097	5.79537
410.31	26.87099
410.523	-40.56246
410.736	-8.95613
410.949	-19.49219
411.162	-21.59933
411.375	-21.59933
411.588	26.87099
411.801	-4.74153
412.014	-46.88306
412.227	26.87099
412.44	26.87099
412.653	-8.95613
412.865	3.68794
413.078	-0.52684
413.291	-34.24164
413.504	-74.26969
413.717	-30.02763
413.93	-48.98987
414.143	-27.92059
414.356	-67.95008
414.568	-46.88306
414.781	-34.24164
414.994	3.68794
415.207	26.87099
415.42	-30.02763
415.632	5.79537
415.845	-2.6342
416.058	-13.17063
416.271	-53.20343
416.483	43.73317
416.696	-11.06339
416.909	20.54805
417.121	92.22017
417.334	-21.59933
417.547	-19.49219
417.759	-40.56246
417.972	-82.69548
418.185	-8.95613
418.397	14.22533
418.61	-4.74153
418.823	-40.56246
419.035	16.33288
419.248	-38.45555
419.46	16.33288
419.673	-36.3486
419.885	7.90283
420.098	-2.6342
420.311	12.11781
420.523	-25.81353
420.736	-78.48264
420.948	-6.84884
421.161	-84.80186
421.373	-112.18246
421.586	-25.81353
421.798	-67.95008
422.01	-48.98987
422.223	-0.52684
422.435	16.33288
422.648	14.22533
422.86	-65.84349
423.073	31.08639
423.285	10.01031
423.497	-30.02763
423.71	-6.84884
423.922	16.33288
424.134	26.87099
424.347	50.05688
424.559	-124.81816
424.771	-23.70644
424.984	3.68794
425.196	14.22533
425.408	-34.24164
425.621	-6.84884
425.833	-11.06339
426.045	-53.20343
426.257	-8.95613
426.47	12.11781
426.682	-13.17063
426.894	-30.02763
427.106	-112.18246
427.318	-25.81353
427.531	-46.88306
427.743	-0.52684
427.955	-86.90822
428.167	-38.45555
428.379	-38.45555
428.591	-21.59933
428.804	-67.95008
429.016	69.02924
429.228	-42.66935
429.44	-61.63024
429.652	28.97868
429.864	-42.66935
430.076	-0.52684
430.288	3.68794
430.5	-11.06339
430.712	-76.37618
430.924	7.90283
431.136	-21.59933
431.348	-55.31017
431.56	-6.84884
431.772	-6.84884
431.984	-4.74153
432.196	-25.81353
432.408	33.19413
432.62	-46.88306
432.832	1.58054
433.044	3.68794
433.256	-6.84884
433.468	-15.27784
433.679	-11.06339
433.891	3.68794
434.103	37.40968
434.315	-8.95613
434.527	-27.92059
434.739	-0.52684
434.95	-13.17063
435.162	-0.52684
435.374	-46.88306
435.586	-11.06339
435.798	-42.66935
436.009	39.51749
436.221	-36.3486
436.433	7.90283
436.645	-59.52357
436.856	-21.59933
437.068	12.11781
437.28	-2.6342
437.491	-13.17063
437.703	-46.88306
437.915	37.40968
438.126	-46.88306
438.338	-30.02763
438.55	37.40968
438.761	-19.49219
438.973	-23.70644
439.184	12.11781
439.396	3.68794
439.608	-13.17063
439.819	-17.38502
440.031	-19.49219
440.242	-51.09666
440.454	-101.65198
440.665	-4.74153
440.877	-63.73688
441.088	-34.24164
441.3	-13.17063
441.511	58.48881
441.723	-78.48264
441.934	-8.95613
442.146	-25.81353
442.357	12.11781
442.569	-27.92059
442.78	10.01031
442.991	-4.74153
443.203	-8.95613
443.414	-21.59933
443.626	-13.17063
443.837	-0.52684
444.048	-63.73688
444.26	-8.95613
444.471	-4.74153
444.682	-46.88306
444.894	-114.28848
445.105	69.02924
445.316	-86.90822
445.528	-11.06339
445.739	-2.6342
445.95	-6.84884
446.161	14.22533
446.373	-36.3486
446.584	-38.45555
446.795	-70.05664
447.006	-42.66935
447.217	28.97868
447.429	-103.75813
447.64	-74.26969
447.851	-55.31017
448.062	7.90283
448.273	5.79537
448.484	-63.73688
448.695	-19.49219
448.907	3.68794
449.118	1.58054
449.329	-72.16318
449.54	-30.02763
449.751	50.05688
449.962	-46.88306
450.173	3.68794
450.384	-8.95613
450.595	-8.95613
450.806	-0.52684
451.017	-13.17063
451.228	-27.92059
451.439	-4.74153
451.65	-40.56246
451.861	-0.52684
452.072	-57.41689
452.283	-17.38502
452.494	-21.59933
452.705	1.58054
452.915	-53.20343
453.126	16.33288
453.337	-59.52357
453.548	26.87099
453.759	-82.69548
453.97	54.2728
454.181	-21.59933
454.391	7.90283
454.602	26.87099
454.813	-21.59933
455.024	26.87099
455.235	-42.66935
455.445	28.97868
455.656	-21.59933
455.867	-55.31017
456.078	28.97868
456.288	18.44046
456.499	-48.98987
456.71	16.33288
456.921	-0.52684
457.131	-40.56246
457.342	-32.13465
457.553	-21.59933
457.763	20.54805
457.974	-32.13465
458.184	-17.38502
458.395	-8.95613
458.606	64.813
458.816	-27.92059
459.027	-72.16318
459.237	-32.13465
459.448	54.2728
459.659	-72.16318
459.869	-25.81353
460.08	-36.3486
460.29	31.08639
460.501	-11.06339
460.711	31.08639
460.922	-42.66935
461.132	-84.80186
461.343	5.79537
461.553	-38.45555
461.764	31.08639
461.974	-17.38502
462.184	7.90283
462.395	-25.81353
462.605	-23.70644
462.816	-4.74153
463.026	-84.80186
463.236	14.22533
463.447	-25.81353
463.657	-122.71228
463.867	-80.58907
464.078	-13.17063
464.288	-0.52684
464.498	22.65567
464.709	-21.59933
464.919	79.57023
465.129	-17.38502
465.339	-0.52684
465.55	-40.56246
465.76	37.40968
465.97	-21.59933
466.18	-4.74153
466.391	-44.77622
466.601	7.90283
466.811	-55.31017
467.021	-46.88306
467.231	-61.63024
467.441	-13.17063
467.651	-74.26969
467.862	-11.06339
468.072	-13.17063
468.282	50.05688
468.492	81.6785
468.702	-38.45555
468.912	-30.02763
469.122	-34.24164
469.332	24.76332
469.542	-4.74153
469.752	-19.49219
469.962	-13.17063
470.172	-8.95613
470.382	-8.95613
470.592	-86.90822
470.802	-61.63024
471.012	-93.22713
471.222	-38.45555
471.432	-6.84884
471.642	22.65567
471.852	-42.66935
472.062	5.79537
472.272	45.84105
472.482	-11.06339
472.691	-19.49219
472.901	-13.17063
473.111	79.57023
473.321	20.54805
473.531	-86.90822
473.741	-13.17063
473.95	-51.09666
474.16	28.97868
474.37	22.65567
474.58	45.84105
474.79	-21.59933
474.999	-57.41689
475.209	-34.24164
475.419	3.68794
475.628	37.40968
475.838	16.33288
476.048	-25.81353
476.258	24.76332
476.467	28.97868
476.677	-61.63024
476.886	22.65567
477.096	-4.74153
477.306	-23.70644
477.515	-21.59933
477.725	-57.41689
477.935	-30.02763
478.144	-0.52684
478.354	-51.09666
478.563	-40.56246
478.773	-0.52684
478.982	-44.77622
479.192	-34.24164
479.401	-8.95613
479.611	-17.38502
479.82	3.68794
480.03	-11.06339
480.239	-65.84349
480.449	37.40968
480.658	-40.56246
480.868	-57.41689
481.077	-17.38502
481.287	-42.66935
481.496	12.11781
481.705	-13.17063
481.915	-13.17063
482.124	28.97868
482.333	-15.27784
482.543	-38.45555
482.752	-13.17063
482.961	-2.6342
483.171	-70.05664
483.38	-21.59933
483.589	-59.52357
483.799	-59.52357
484.008	-40.56246
484.217	-36.3486
484.426	-139.55859
484.636	39.51749
484.845	31.08639
485.054	-17.38502
485.263	-91.12085
485.472	-19.49219
485.682	-13.17063
485.891	-6.84884
486.1	-120.60637
486.309	-59.52357
486.518	-63.73688
486.727	-17.38502
486.936	37.40968
487.146	-2.6342
487.355	-55.31017
487.564	79.57023
487.773	-105.86425
487.982	62.70491
488.191	-46.88306
488.4	43.73317
488.609	-78.48264
488.818	-27.92059
489.027	-44.77622
489.236	3.68794
489.445	-53.20343
489.654	-46.88306
489.863	-78.48264
490.072	-34.24164
490.281	-36.3486
490.49	-34.24164
490.698	-97.43961
490.907	22.65567
491.116	-65.84349
491.325	-6.84884
491.534	28.97868
491.743	-44.77622
491.952	10.01031
492.16	7.90283
492.369	-38.45555
492.578	-27.92059
492.787	20.54805
492.996	-21.59933
493.204	-11.06339
493.413	41.62532
493.622	-55.31017
493.831	1.58054
494.039	26.87099
494.248	22.65567
494.457	-13.17063
494.665	-17.38502
494.874	-17.38502
495.083	-27.92059
495.291	14.22533
495.5	-30.02763
495.709	18.44046
495.917	14.22533
496.126	24.76332
496.335	-46.88306
496.543	-38.45555
496.752	-78.48264
496.96	-55.31017
497.169	-84.80186
497.377	31.08639
497.586	14.22533
497.794	41.62532
498.003	14.22533
498.211	-36.3486
498.42	3.68794
498.628	-42.66935
498.837	-42.66935
499.045	-63.73688
499.254	-6.84884
499.462	56.38079
499.671	-19.49219
499.879	-53.20343
500.087	-8.95613
500.296	-0.52684
500.504	-0.52684
500.713	39.51749
500.921	-11.06339
501.129	-4.74153
501.338	16.33288
501.546	-44.77622
501.754	-42.66935
501.962	-8.95613
502.171	-61.63024
502.379	-15.27784
502.587	10.01031
502.795	37.40968
503.004	37.40968
503.212	-30.02763
503.42	-40.56246
503.628	-34.24164
503.837	-40.56246
504.045	-13.17063
504.253	5.79537
504.461	-44.77622
504.669	-57.41689
504.877	-72.16318
505.085	28.97868
505.294	-42.66935
505.502	45.84105
505.71	-40.56246
505.918	-0.52684
506.126	-42.66935
506.334	41.62532
506.542	-63.73688
506.75	-53.20343
506.958	-51.09666
507.166	-4.74153
507.374	-63.73688
507.582	20.54805
507.79	-27.92059
507.998	-38.45555
508.206	-21.59933
508.414	26.87099
508.622	-8.95613
508.83	12.11781
509.037	62.70491
509.245	-19.49219
509.453	-17.38502
509.661	12.11781
509.869	-27.92059
510.077	12.11781
510.285	52.16483
510.492	-40.56246
510.7	64.813
510.908	31.08639
511.116	-8.95613
511.324	-30.02763
511.531	24.76332
511.739	-8.95613
511.947	-53.20343
512.155	3.68794
512.362	-44.77622
512.57	10.01031
512.778	5.79537
512.985	-51.09666
513.193	-55.31017
513.401	-27.92059
513.608	50.05688
513.816	-27.92059
514.024	-0.52684
514.231	-46.88306
514.439	-46.88306
514.646	7.90283
514.854	-30.02763
515.061	7.90283
515.269	-42.66935
515.477	-63.73688
515.684	50.05688
515.892	-67.95008
516.099	-30.02763
516.307	-32.13465
516.514	-13.17063
516.722	-51.09666
516.929	-55.31017
517.136	-4.74153
517.344	-34.24164
517.551	45.84105
517.759	-55.31017
517.966	-0.52684
518.173	-40.56246
518.381	47.94895
518.588	43.73317
518.796	31.08639
519.003	-13.17063
519.21	5.79537
519.418	-63.73688
519.625	-42.66935
519.832	-55.31017
520.039	20.54805
520.247	-38.45555
520.454	-30.02763
520.661	-55.31017
520.868	-21.59933
521.076	-59.52357
521.283	-15.27784
521.49	-70.05664
521.697	45.84105
521.904	-8.95613
522.112	62.70491
522.319	-38.45555
522.526	26.87099
522.733	-25.81353
522.94	3.68794
523.147	94.32857
523.354	-4.74153
523.561	64.813
523.768	62.70491
523.975	22.65567
524.183	-107.97035
524.39	24.76332
524.597	-23.70644
524.804	-11.06339
525.011	35.30189
525.218	-42.66935
525.425	22.65567
525.632	-36.3486
525.838	41.62532
526.045	20.54805
526.252	31.08639
526.459	5.79537
526.666	-27.92059
526.873	-11.06339
527.08	-80.58907
527.287	43.73317
527.494	31.08639
527.701	-8.95613
527.907	-78.48264
528.114	-0.52684
528.321	-44.77622
528.528	-17.38502
528.735	-21.59933
528.941	-2.6342
529.148	-8.95613
529.355	28.97868
529.562	-6.84884
529.768	-21.59933
529.975	-63.73688
530.182	-38.45555
530.388	-67.95008
530.595	-8.95613
530.802	16.33288
531.008	-44.77622
531.215	-11.06339
531.422	-15.27784
531.628	-11.06339
531.835	33.19413
532.042	1.58054
532.248	-59.52357
532.455	10.01031
532.661	-44.77622
532.868	-8.95613
533.074	-11.06339
533.281	-27.92059
533.487	35.30189
533.694	-38.45555
533.9	-36.3486
534.107	18.44046
534.313	-4.74153
534.52	-21.59933
534.726	-32.13465
534.933	-55.31017
535.139	47.94895
535.345	5.79537
535.552	12.11781
535.758	18.44046
535.965	-67.95008
536.171	-51.09666
536.377	-36.3486
536.584	22.65567
536.79	-42.66935
536.996	26.87099
537.203	-4.74153
537.409	-30.02763
537.615	-0.52684
537.821	-13.17063
538.028	-65.84349
538.234	7.90283
538.44	-15.27784
538.646	-2.6342
538.853	-27.92059
539.059	-32.13465
539.265	-91.12085
539.471	-78.48264
539.677	-42.66935
539.883	-76.37618
540.09	3.68794
540.296	-95.33338
540.502	-67.95008
540.708	24.76332
540.914	-4.74153
541.12	-42.66935
541.326	-51.09666
541.532	-2.6342
541.738	41.62532
541.944	7.90283
542.15	-4.74153
542.356	3.68794
542.562	-32.13465
542.768	-57.41689
542.974	31.08639
543.18	-11.06339
543.386	-11.06339
543.592	54.2728
543.798	-4.74153
544.004	24.76332
544.21	47.94895
544.415	5.79537
544.621	-80.58907
544.827	-13.17063
545.033	-19.49219
545.239	-44.77622
545.445	60.59685
545.651	-34.24164
545.856	-15.27784
546.062	-2.6342
546.268	-25.81353
546.474	-46.88306
546.679	-63.73688
546.885	-25.81353
547.091	-2.6342
547.297	-34.24164
547.502	-63.73688
547.708	10.01031
547.914	3.68794
548.119	-46.88306
548.325	-40.56246
548.531	-101.65198
548.736	-21.59933
548.942	24.76332
549.147	-42.66935
549.353	-17.38502
549.559	-72.16318
549.764	-0.52684
549.97	-53.20343
550.175	-21.59933
550.381	-30.02763
550.586	-4.74153
550.792	-44.77622
550.997	-15.27784
551.203	-76.37618
551.408	16.33288
551.614	12.11781
551.819	14.22533
552.025	-17.38502
552.23	-25.81353
552.435	-30.02763
552.641	-38.45555
552.846	31.08639
553.052	-17.38502
553.257	62.70491
553.462	-27.92059
553.668	-89.01455
553.873	-0.52684
554.078	-4.74153
554.283	12.11781
554.489	-97.43961
554.694	-30.02763
554.899	-6.84884
555.105	43.73317
555.31	22.65567
555.515	-0.52684
555.72	-25.81353
555.925	16.33288
556.131	-25.81353
556.336	-61.63024
556.541	-17.38502
556.746	-17.38502
556.951	-67.95008
557.156	20.54805
557.361	-70.05664
557.567	-13.17063
557.772	26.87099
557.977	-38.45555
558.182	7.90283
558.387	-40.56246
558.592	-78.48264
558.797	3.68794
559.002	-57.41689
559.207	5.79537
559.412	-17.38502
559.617	20.54805
559.822	-13.17063
560.027	-48.98987
560.232	-76.37618
560.437	-25.81353
560.642	12.11781
560.847	-34.24164
561.051	37.40968
561.256	-46.88306
561.461	-67.95008
561.666	39.51749
561.871	12.11781
562.076	-4.74153
562.281	7.90283
562.485	-65.84349
562.69	-44.77622
562.895	-13.17063
563.1	-21.59933
563.305	-38.45555
563.509	-46.88306
563.714	-86.90822
563.919	-38.45555
564.123	-40.56246
564.328	-4.74153
564.533	-72.16318
564.737	14.22533
564.942	52.16483
565.147	-44.77622
565.351	-6.84884
565.556	-2.6342
565.761	37.40968
565.965	31.08639
566.17	-8.95613
566.374	81.6785
566.579	66.92111
566.784	-4.74153
566.988	-4.74153
567.193	24.76332
567.397	-4.74153
567.602	-13.17063
567.806	-8.95613
568.011	-44.77622
568.215	-89.01455
568.42	-4.74153
568.624	-27.92059
568.828	-97.43961
569.033	-36.3486
569.237	28.97868
569.442	-13.17063
569.646	-42.66935
569.85	-38.45555
570.055	-55.31017
570.259	-44.77622
570.463	39.51749
570.668	20.54805
570.872	-53.20343
571.076	-21.59933
571.281	28.97868
571.485	-46.88306
571.689	-13.17063
571.893	-36.3486
572.098	-76.37618
572.302	58.48881
572.506	-19.49219
572.71	-53.20343
572.914	12.11781
573.119	50.05688
573.323	-21.59933
573.527	-46.88306
573.731	-27.92059
573.935	-46.88306
574.139	50.05688
574.343	20.54805
574.547	54.2728
574.751	-30.02763
574.955	10.01031
575.159	12.11781
575.364	-34.24164
575.568	-72.16318
575.772	-4.74153
575.976	58.48881
576.18	56.38079
576.383	-38.45555
576.587	14.22533
576.791	-59.52357
576.995	-17.38502
577.199	-59.52357
577.403	-59.52357
577.607	-36.3486
577.811	7.90283
578.015	41.62532
578.219	-19.49219
578.422	69.02924
578.626	-21.59933
578.83	-70.05664
579.034	20.54805
579.238	-2.6342
579.442	-72.16318
579.645	-13.17063
579.849	-36.3486
580.053	12.11781
580.257	26.87099
580.46	-38.45555
580.664	-80.58907
580.868	-19.49219
581.071	3.68794
581.275	-4.74153
581.479	12.11781
581.682	52.16483
581.886	37.40968
582.09	7.90283
582.293	-13.17063
582.497	-53.20343
582.7	-51.09666
582.904	-38.45555
583.107	-34.24164
583.311	-51.09666
583.515	-55.31017
583.718	-4.74153
583.922	-42.66935
584.125	10.01031
584.329	-21.59933
584.532	-0.52684
584.735	-53.20343
584.939	-51.09666
585.142	-89.01455
585.346	-4.74153
585.549	-57.41689
585.753	-61.63024
585.956	60.59685
586.159	24.76332
586.363	-25.81353
586.566	28.97868
586.769	16.33288
586.973	-72.16318
587.176	-63.73688
587.379	-30.02763
587.582	-8.95613
587.786	22.65567
587.989	-59.52357
588.192	-40.56246
588.395	7.90283
588.599	-34.24164
588.802	20.54805
589.005	-61.63024
589.208	-61.63024
589.411	5.79537
589.615	-23.70644
589.818	-44.77622
590.021	3.68794
590.224	41.62532
590.427	-25.81353
590.63	64.813
590.833	-2.6342
591.036	14.22533
591.239	14.22533
591.442	3.68794
591.645	-27.92059
591.848	-48.98987
592.051	24.76332
592.254	16.33288
592.457	-2.6342
592.66	-65.84349
592.863	-36.3486
593.066	-4.74153
593.269	-13.17063
593.472	3.68794
593.675	24.76332
593.878	-38.45555
594.081	-46.88306
594.284	-27.92059
594.486	-11.06339
594.689	26.87099
594.892	-0.52684
595.095	56.38079
595.298	14.22533
595.5	-40.56246
595.703	-34.24164
595.906	-91.12085
596.109	-17.38502
596.311	24.76332
596.514	-76.37618
596.717	-44.77622
596.92	-8.95613
597.122	14.22533
597.325	-78.48264
597.528	-53.20343
597.73	-42.66935
597.933	31.08639
598.136	-57.41689
598.338	-74.26969
598.541	45.84105
598.743	43.73317
598.946	-34.24164
599.148	-0.52684
599.351	-53.20343
599.554	-30.02763
599.756	-2.6342
599.959	71.13739
600.161	22.65567
600.363	-46.88306
600.566	-42.66935
600.768	-21.59933
600.971	-13.17063
601.173	43.73317
601.376	-0.52684
601.578	1.58054
601.78	60.59685
601.983	28.97868
602.185	-42.66935
602.388	-19.49219
602.59	-34.24164
602.792	-13.17063
602.995	-36.3486
603.197	-4.74153
603.399	3.68794
603.601	-67.95008
603.804	-21.59933
604.006	-34.24164
604.208	-76.37618
604.41	-6.84884
604.613	5.79537
604.815	-30.02763
605.017	-19.49219
605.219	22.65567
605.421	-38.45555
605.623	-97.43961
605.826	20.54805
606.028	-63.73688
606.23	31.08639
606.432	-13.17063
606.634	24.76332
606.836	16.33288
607.038	16.33288
607.24	-17.38502
607.442	20.54805
607.644	-8.95613
607.846	-11.06339
608.048	-76.37618
608.25	-76.37618
608.452	-61.63024
608.654	-21.59933
608.856	-32.13465
609.058	-8.95613
609.26	12.11781
609.462	3.68794
609.664	-44.77622
609.866	28.97868
610.067	-25.81353
610.269	-13.17063
610.471	-55.31017
610.673	-30.02763
610.875	-103.75813
611.077	12.11781
611.278	7.90283
611.48	35.30189
611.682	35.30189
611.884	62.70491
612.085	-72.16318
612.287	39.51749
612.489	-46.88306
612.69	-8.95613
612.892	-51.09666
613.094	-15.27784
613.295	-8.95613
613.497	31.08639
613.699	-53.20343
613.9	-42.66935
614.102	-34.24164
614.304	28.97868
614.505	-53.20343
614.707	-32.13465
614.908	7.90283
615.11	3.68794
615.311	31.08639
615.513	-11.06339
615.714	-105.86425
615.916	50.05688
616.117	-4.74153
616.319	20.54805
616.52	14.22533
616.722	26.87099
616.923	-27.92059
617.124	-36.3486
617.326	71.13739
617.527	62.70491
617.729	-17.38502
617.93	24.76332
618.131	-46.88306
618.333	10.01031
618.534	-0.52684
618.735	-27.92059
618.937	-30.02763
619.138	-38.45555
619.339	50.05688
619.54	1.58054
619.742	-21.59933
619.943	-82.69548
620.144	-13.17063
620.345	16.33288
620.546	-4.74153
620.748	-30.02763
620.949	-8.95613
621.15	10.01031
621.351	16.33288
621.552	-17.38502
621.753	-42.66935
621.954	-42.66935
622.155	12.11781
622.356	-0.52684
622.558	5.79537
622.759	-30.02763
622.96	1.58054
623.161	-11.06339
623.362	-93.22713
623.563	16.33288
623.764	-86.90822
623.965	-8.95613
624.166	-19.49219
624.366	-13.17063
624.567	-0.52684
624.768	7.90283
624.969	-30.02763
625.17	-59.52357
625.371	-21.59933
625.572	-11.06339
625.773	-78.48264
625.973	-46.88306
626.174	20.54805
626.375	-40.56246
626.576	-40.56246
626.777	-13.17063
626.977	-25.81353
627.178	-4.74153
627.379	-19.49219
627.58	-78.48264
627.78	1.58054
627.981	-86.90822
628.182	-19.49219
628.382	50.05688
628.583	-13.17063
628.784	47.94895
628.984	14.22533
629.185	12.11781
629.386	45.84105
629.586	-25.81353
629.787	3.68794
629.987	-32.13465
630.188	-42.66935
630.388	-46.88306
630.589	7.90283
630.79	-4.74153
630.99	-103.75813
631.191	-13.17063
631.391	-30.02763
631.591	-4.74153
631.792	-36.3486
631.992	64.813
632.193	56.38079
632.393	12.11781
632.594	39.51749
632.794	-13.17063
632.994	-11.06339
633.195	-6.84884
633.395	-4.74153
633.595	-72.16318
633.796	-63.73688
633.996	56.38079
634.196	20.54805
634.397	-13.17063
634.597	-59.52357
634.797	-11.06339
634.997	-4.74153
635.198	71.13739
635.398	37.40968
635.598	-42.66935
635.798	-21.59933
635.998	3.68794
636.199	-2.6342
636.399	50.05688
636.599	-36.3486
636.799	-4.74153
636.999	12.11781
637.199	-59.52357
637.399	-38.45555
637.599	-46.88306
637.799	-13.17063
637.999	-30.02763
638.199	12.11781
638.399	73.24557
638.599	-13.17063
638.799	10.01031
638.999	-19.49219
639.199	-42.66935
639.399	54.2728
639.599	-15.27784
639.799	-36.3486
639.999	-4.74153
640.199	-57.41689
640.399	-25.81353
640.599	-53.20343
640.799	-120.60637
640.998	-30.02763
641.198	-53.20343
641.398	-51.09666
641.598	-0.52684
641.798	-51.09666
641.997	-65.84349
642.197	33.19413
642.397	-27.92059
642.597	-42.66935
642.796	14.22533
642.996	-23.70644
643.196	-57.41689
643.395	-51.09666
643.595	-15.27784
643.795	-36.3486
643.994	14.22533
644.194	20.54805
644.394	-8.95613
644.593	71.13739
644.793	12.11781
644.992	-53.20343
645.192	-4.74153
645.392	16.33288
645.591	20.54805
645.791	-51.09666
645.99	28.97868
646.19	-65.84349
646.389	-76.37618
646.589	12.11781
646.788	-65.84349
646.987	-30.02763
647.187	-25.81353
647.386	-30.02763
647.586	45.84105
647.785	-23.70644
647.984	-6.84884
648.184	-19.49219
648.383	-51.09666
648.582	26.87099
648.782	-13.17063
648.981	-25.81353
649.18	24.76332
649.38	-0.52684
649.579	12.11781
649.778	-23.70644
649.977	-63.73688
650.177	7.90283
650.376	-34.24164
650.575	-11.06339
650.774	-4.74153
650.973	-25.81353
651.173	-27.92059
651.372	-99.54581
651.571	-8.95613
651.77	41.62532
651.969	-27.92059
652.168	20.54805
652.367	1.58054
652.566	-59.52357
652.765	-13.17063
652.964	33.19413
653.163	-57.41689
653.362	-21.59933
653.561	-13.17063
653.76	-17.38502
653.959	-30.02763
654.158	-34.24164
654.357	-42.66935
654.556	-15.27784
654.755	16.33288
654.954	39.51749
655.153	-21.59933
655.352	-97.43961
655.551	-55.31017
655.749	7.90283
655.948	-0.52684
656.147	12.11781
656.346	-17.38502
656.545	3.68794
656.743	-34.24164
656.942	-42.66935
657.141	-17.38502
657.34	-0.52684
657.538	-55.31017
657.737	-11.06339
657.936	-2.6342
658.135	-0.52684
658.333	1.58054
658.532	-78.48264
658.731	-19.49219
658.929	33.19413
659.128	-40.56246
659.326	5.79537
659.525	-97.43961
659.724	-21.59933
659.922	22.65567
660.121	-2.6342
660.319	24.76332
660.518	-32.13465
660.716	-17.38502
660.915	-53.20343
661.113	-4.74153
661.312	-25.81353
661.51	81.6785
661.709	-46.88306
661.907	71.13739
662.105	37.40968
662.304	-51.09666
662.502	-38.45555
662.701	12.11781
662.899	-36.3486
663.097	-30.02763
663.296	-57.41689
663.494	24.76332
663.692	-30.02763
663.891	-2.6342
664.089	-70.05664
664.287	-0.52684
664.485	-21.59933
664.684	-89.01455
664.882	-30.02763
665.08	-101.65198
665.278	28.97868
665.476	1.58054
665.675	-63.73688
665.873	-8.95613
666.071	20.54805
666.269	-59.52357
666.467	54.2728
666.665	54.2728
666.863	47.94895
667.061	-8.95613
667.259	-67.95008
667.457	-21.59933
667.655	-72.16318
667.853	-48.98987
668.051	1.58054
668.249	7.90283
668.447	-8.95613
668.645	-74.26969
668.843	50.05688
669.041	-55.31017
669.239	-32.13465
669.437	-44.77622
669.635	-13.17063
669.833	-8.95613
670.031	-0.52684
670.229	-44.77622
670.426	-135.34718
670.624	-15.27784
670.822	-30.02763
671.02	-11.06339
671.218	50.05688
671.415	54.2728
671.613	-44.77622
671.811	41.62532
672.009	-91.12085
672.206	-70.05664
672.404	-15.27784
672.602	-0.52684
672.799	-11.06339
672.997	-46.88306
673.195	-51.09666
673.392	28.97868
673.59	-11.06339
673.788	7.90283
673.985	-38.45555
674.183	-38.45555
674.38	3.68794
674.578	18.44046
674.775	-40.56246
674.973	24.76332
675.17	-51.09666
675.368	-32.13465
675.565	-44.77622
675.763	20.54805
675.96	-46.88306
676.158	-30.02763
676.355	-0.52684
676.553	26.87099
676.75	90.11179
676.947	-21.59933
677.145	-38.45555
677.342	-38.45555
677.539	-59.52357
677.737	-8.95613
677.934	-2.6342
678.131	1.58054
678.329	-15.27784
678.526	-27.92059
678.723	-17.38502
678.92	-70.05664
679.118	-84.80186
679.315	71.13739
679.512	3.68794
679.709	54.2728
679.906	28.97868
680.104	-46.88306
680.301	33.19413
680.498	-42.66935
680.695	22.65567
680.892	-30.02763
681.089	45.84105
681.286	-13.17063
681.483	39.51749
681.68	-17.38502
681.877	-30.02763
682.075	41.62532
682.272	16.33288
682.469	-63.73688
682.665	3.68794
682.862	-19.49219
683.059	-103.75813
683.256	-46.88306
683.453	62.70491
683.65	12.11781
683.847	52.16483
684.044	5.79537
684.241	-36.3486
684.438	-78.48264
684.635	-11.06339
684.831	-23.70644
685.028	-74.26969
685.225	45.84105
685.422	-38.45555
685.619	-21.59933
685.815	-40.56246
686.012	-46.88306
686.209	39.51749
686.405	-32.13465
686.602	3.68794
686.799	-21.59933
686.996	-15.27784
687.192	3.68794
687.389	-95.33338
687.586	-11.06339
687.782	16.33288
687.979	-25.81353
688.175	3.68794
688.372	-19.49219
688.568	-17.38502
688.765	-97.43961
688.962	16.33288
689.158	-8.95613
689.355	-40.56246
689.551	-13.17063
689.748	-53.20343
689.944	-15.27784
690.14	-61.63024
690.337	-13.17063
690.533	-27.92059
690.73	-2.6342
690.926	-42.66935
691.123	-15.27784
691.319	45.84105
691.515	28.97868
691.712	-51.09666
691.908	-13.17063
692.104	-36.3486
692.301	-21.59933
692.497	24.76332
692.693	-27.92059
692.889	-23.70644
693.086	-27.92059
693.282	10.01031
693.478	35.30189
693.674	-55.31017
693.87	-55.31017
694.067	-70.05664
694.263	-107.97035
694.459	-40.56246
694.655	41.62532
694.851	-8.95613
695.047	24.76332
695.243	-38.45555
695.439	-30.02763
695.635	-4.74153
695.831	-4.74153
696.027	5.79537
696.224	-38.45555
696.42	-34.24164
696.615	-2.6342
696.811	1.58054
697.007	-32.13465
697.203	3.68794
697.399	-63.73688
697.595	-13.17063
697.791	12.11781
697.987	-8.95613
698.183	18.44046
698.379	-27.92059
698.575	-55.31017
698.77	-19.49219
698.966	12.11781
699.162	-46.88306
699.358	-8.95613
699.554	20.54805
699.749	-48.98987
699.945	-55.31017
700.141	-84.80186
700.337	1.58054
700.532	3.68794
700.728	22.65567
700.924	-93.22713
701.119	-40.56246
701.315	3.68794
701.511	-27.92059
701.706	37.40968
701.902	-59.52357
702.097	-2.6342
702.293	-19.49219
702.489	-0.52684
702.684	12.11781
702.88	-38.45555
703.075	24.76332
703.271	-63.73688
703.466	5.79537
703.662	-17.38502
703.857	33.19413
704.053	22.65567
704.248	-42.66935
704.443	-4.74153
704.639	-19.49219
704.834	24.76332
705.03	12.11781
705.225	-0.52684
705.42	-6.84884
705.616	-44.77622
705.811	37.40968
706.006	7.90283
706.202	-11.06339
706.397	-30.02763
706.592	-42.66935
706.787	-13.17063
706.983	37.40968
707.178	12.11781
707.373	5.79537
707.568	-93.22713
707.763	-55.31017
707.959	-131.13565
708.154	33.19413
708.349	-78.48264
708.544	20.54805
708.739	-19.49219
708.934	-78.48264
709.129	-51.09666
709.324	-2.6342
709.519	-34.24164
709.714	31.08639
709.909	-19.49219
710.104	12.11781
710.299	39.51749
710.494	22.65567
710.689	-15.27784
710.884	31.08639
711.079	3.68794
711.274	104.87091
711.469	3.68794
711.664	-72.16318
711.859	-4.74153
712.054	-53.20343
712.249	60.59685
712.443	-38.45555
712.638	-30.02763
712.833	56.38079
713.028	-44.77622
713.223	-23.70644
713.417	-0.52684
713.612	-55.31017
713.807	-21.59933
714.002	31.08639
714.196	-19.49219
714.391	-21.59933
714.586	-55.31017
714.78	-4.74153
714.975	-30.02763
715.17	-27.92059
715.364	-30.02763
715.559	-23.70644
715.754	-6.84884
715.948	12.11781
716.143	18.44046
716.337	-0.52684
716.532	-32.13465
716.726	12.11781
716.921	-15.27784
717.115	-32.13465
717.31	-19.49219
717.504	-38.45555
717.699	24.76332
717.893	41.62532
718.088	-32.13465
718.282	24.76332
718.476	-15.27784
718.671	33.19413
718.865	-0.52684
719.059	58.48881
719.254	-27.92059
719.448	12.11781
719.642	-0.52684
719.837	16.33288
720.031	-57.41689
720.225	16.33288
720.419	-2.6342
720.614	-13.17063
720.808	28.97868
721.002	41.62532
721.196	12.11781
721.39	24.76332
721.585	12.11781
721.779	-70.05664
721.973	-42.66935
722.167	-63.73688
722.361	-72.16318
722.555	-27.92059
722.749	-55.31017
722.943	37.40968
723.137	-8.95613
723.331	-51.09666
723.525	1.58054
723.719	31.08639
723.913	-15.27784
724.107	16.33288
724.301	-19.49219
724.495	-23.70644
724.689	37.40968
724.883	-51.09666
725.077	-89.01455
725.271	-17.38502
725.465	-17.38502
725.659	12.11781
725.853	-21.59933
726.046	47.94895
726.24	-27.92059
726.434	-21.59933
726.628	31.08639
726.822	-67.95008
727.015	-0.52684
727.209	-21.59933
727.403	-53.20343
727.596	-2.6342
727.79	-6.84884
727.984	28.97868
728.177	-36.3486
728.371	43.73317
728.565	-23.70644
728.758	26.87099
728.952	-32.13465
729.146	-2.6342
729.339	-25.81353
729.533	41.62532
729.726	31.08639
729.92	50.05688
730.113	-21.59933
730.307	-19.49219
730.5	-34.24164
730.694	-46.88306
730.887	-65.84349
731.081	-36.3486
731.274	-46.88306
731.468	-42.66935
731.661	22.65567
731.854	-19.49219
732.048	-19.49219
732.241	-30.02763
732.435	-0.52684
732.628	12.11781
732.821	37.40968
733.014	-11.06339
733.208	-34.24164
733.401	-63.73688
733.594	-57.41689
733.788	-67.95008
733.981	-36.3486
734.174	37.40968
734.367	3.68794
734.56	18.44046
734.754	-21.59933
734.947	73.24557
735.14	-59.52357
735.333	-38.45555
735.526	-42.66935
735.719	-21.59933
735.912	28.97868
736.105	-51.09666
736.298	-30.02763
736.491	-63.73688
736.684	37.40968
736.877	-32.13465
737.07	47.94895
737.263	-21.59933
737.456	10.01031
737.649	3.68794
737.842	-59.52357
738.035	3.68794
738.228	-86.90822
738.421	-57.41689
738.614	-25.81353
738.807	-0.52684
739	-25.81353
739.192	-30.02763
739.385	-8.95613
739.578	-48.98987
739.771	-6.84884
739.964	-4.74153
740.156	-13.17063
740.349	-84.80186
740.542	-34.24164
740.735	-13.17063
740.927	3.68794
741.12	-59.52357
741.313	-59.52357
741.505	-55.31017
741.698	24.76332
741.891	-2.6342
742.083	-72.16318
742.276	3.68794
742.468	-67.95008
742.661	50.05688
742.854	-11.06339
743.046	-13.17063
743.239	-21.59933
743.431	-95.33338
743.624	22.65567
743.816	-53.20343
744.009	-4.74153
744.201	64.813
744.393	-0.52684
744.586	22.65567
744.778	54.2728
744.971	39.51749
745.163	111.19658
745.355	-27.92059
745.548	58.48881
745.74	-2.6342
745.932	-13.17063
746.125	20.54805
746.317	12.11781
746.509	-34.24164
746.702	7.90283
746.894	50.05688
747.086	-17.38502
747.278	-53.20343
747.471	-15.27784
747.663	98.54544
747.855	-2.6342
748.047	31.08639
748.239	-0.52684
748.431	-53.20343
748.623	5.79537
748.815	43.73317
749.008	-76.37618
749.2	16.33288
749.392	-55.31017
749.584	-34.24164
749.776	-42.66935
749.968	-42.66935
750.16	-8.95613
750.352	-13.17063
750.544	-19.49219
750.736	12.11781
750.928	-67.95008
751.12	-38.45555
751.311	-25.81353
751.503	16.33288
751.695	-67.95008
751.887	18.44046
752.079	-46.88306
752.271	-51.09666
752.463	10.01031
752.654	-19.49219
752.846	-21.59933
753.038	22.65567
753.23	-21.59933
753.421	-46.88306
753.613	31.08639
753.805	16.33288
753.997	-78.48264
754.188	56.38079
754.38	5.79537
754.572	-84.80186
754.763	45.84105
754.955	39.51749
755.146	-8.95613
755.338	-48.98987
755.53	-36.3486
755.721	-4.74153
755.913	-27.92059
756.104	-36.3486
756.296	1.58054
756.487	-38.45555
756.679	7.90283
756.87	-80.58907
757.062	-32.13465
757.253	28.97868
757.445	10.01031
757.636	-44.77622
757.827	41.62532
758.019	-80.58907
758.21	-48.98987
758.401	-8.95613
758.593	-30.02763
758.784	-13.17063
758.975	35.30189
759.167	-8.95613
759.358	-86.90822
759.549	-13.17063
759.74	3.68794
759.932	-27.92059
760.123	-76.37618
760.314	20.54805
760.505	-2.6342
760.696	26.87099
760.888	-48.98987
761.079	-27.92059
761.27	1.58054
761.461	31.08639
761.652	-27.92059
761.843	-42.66935
762.034	-25.81353
762.225	-21.59933
762.416	-51.09666
762.607	10.01031
762.798	-46.88306
762.989	-25.81353
763.18	-13.17063
763.371	33.19413
763.562	-46.88306
763.753	7.90283
763.944	-15.27784
764.135	-34.24164
764.326	-2.6342
764.517	28.97868
764.708	20.54805
764.899	43.73317
765.089	16.33288
765.28	-4.74153
765.471	16.33288
765.662	45.84105
765.853	28.97868
766.043	-51.09666
766.234	-53.20343
766.425	-4.74153
766.615	-25.81353
766.806	22.65567
766.997	20.54805
767.187	-27.92059
767.378	18.44046
767.569	56.38079
767.759	-23.70644
767.95	-21.59933
768.141	-55.31017
768.331	-55.31017
768.522	-55.31017
768.712	-13.17063
768.903	14.22533
769.093	39.51749
769.284	45.84105
769.474	3.68794
769.665	37.40968
769.855	-30.02763
770.046	7.90283
770.236	54.2728
770.426	-13.17063
770.617	-21.59933
770.807	-72.16318
770.998	-38.45555
771.188	1.58054
771.378	-80.58907
771.569	-129.02985
771.759	-0.52684
771.949	39.51749
772.139	-4.74153
772.33	-57.41689
772.52	-8.95613
772.71	60.59685
772.9	1.58054
773.09	-36.3486
773.281	-6.84884
773.471	43.73317
773.661	-38.45555
773.851	-2.6342
774.041	-2.6342
774.231	-4.74153
774.421	-44.77622
774.611	12.11781
774.802	-0.52684
774.992	-32.13465
775.182	-6.84884
775.372	5.79537
775.562	-4.74153
775.752	-110.07642
775.942	-13.17063
776.131	-42.66935
776.321	12.11781
776.511	-11.06339
776.701	-13.17063
776.891	20.54805
777.081	-59.52357
777.271	-30.02763
777.461	-59.52357
777.651	-0.52684
777.84	22.65567
778.03	-13.17063
778.22	20.54805
778.41	-80.58907
778.599	-46.88306
778.789	-40.56246
778.979	-25.81353
779.169	-25.81353
779.358	5.79537
779.548	33.19413
779.738	-67.95008
779.927	-55.31017
780.117	66.92111
780.307	-65.84349
780.496	37.40968
780.686	24.76332
780.875	7.90283
781.065	-21.59933
781.254	5.79537
781.444	5.79537
781.633	-74.26969
781.823	-63.73688
782.012	10.01031
782.202	-13.17063
782.391	28.97868
782.581	50.05688
782.77	14.22533
782.96	-78.48264
783.149	-11.06339
783.338	-34.24164
783.528	-2.6342
783.717	-13.17063
783.906	56.38079
784.096	-13.17063
784.285	-21.59933
784.474	-46.88306
784.663	20.54805
784.853	-23.70644
785.042	-4.74153
785.231	-42.66935
785.42	43.73317
785.61	20.54805
785.799	-30.02763
785.988	-72.16318
786.177	-72.16318
786.366	-34.24164
786.555	-15.27784
786.744	-55.31017
786.933	16.33288
787.122	-13.17063
787.312	7.90283
787.501	-61.63024
787.69	24.76332
787.879	-23.70644
788.068	24.76332
788.257	-11.06339
788.445	-61.63024
788.634	-51.09666
788.823	-13.17063
789.012	22.65567
789.201	-114.28848
789.39	1.58054
789.579	-63.73688
789.768	-55.31017
789.957	33.19413
790.145	-30.02763
790.334	47.94895
790.523	-15.27784
790.712	-2.6342
790.9	-23.70644
791.089	77.46199
791.278	-86.90822
791.467	-70.05664
791.655	-6.84884
791.844	-6.84884
792.033	16.33288
792.221	-51.09666
792.41	-40.56246
792.599	-15.27784
792.787	-67.95008
792.976	-84.80186
793.164	-25.81353
793.353	-72.16318
793.541	-0.52684
793.73	-17.38502
793.918	-34.24164
794.107	7.90283
794.295	-72.16318
794.484	45.84105
794.672	-72.16318
794.861	-4.74153
795.049	-21.59933
795.238	-34.24164
795.426	-72.16318
795.614	-55.31017
795.803	10.01031
795.991	-13.17063
796.179	-17.38502
796.368	37.40968
796.556	96.437
796.744	-0.52684
796.932	14.22533
797.121	3.68794
797.309	71.13739
797.497	-17.38502
797.685	-8.95613
797.874	-51.09666
798.062	-84.80186
798.25	-21.59933
798.438	88.00344
798.626	-46.88306
798.814	58.48881
799.002	12.11781
799.19	39.51749
799.378	33.19413
799.566	71.13739
799.755	-30.02763
799.943	-4.74153
800.131	88.00344
800.318	-38.45555
800.506	-34.24164
800.694	3.68794
800.882	-11.06339
801.07	50.05688
801.258	26.87099
801.446	7.90283
801.634	-34.24164
801.822	-30.02763
802.01	-93.22713
802.197	-46.88306
802.385	-42.66935
802.573	-27.92059
802.761	71.13739
802.949	-63.73688
803.136	-34.24164
803.324	-13.17063
803.512	28.97868
803.699	45.84105
803.887	-27.92059
804.075	-25.81353
804.262	24.76332
804.45	-8.95613
804.638	-21.59933
804.825	-21.59933
805.013	-46.88306
805.201	-51.09666
805.388	-15.27784
805.576	-21.59933
805.763	-27.92059
805.951	37.40968
806.138	20.54805
806.326	-4.74153
806.513	-11.06339
806.701	-17.38502
806.888	28.97868
807.075	-34.24164
807.263	-25.81353
807.45	-13.17063
807.638	-8.95613
807.825	-42.66935
808.012	3.68794
808.2	16.33288
808.387	16.33288
808.574	-13.17063
808.761	-13.17063
808.949	-30.02763
809.136	43.73317
809.323	37.40968
809.51	12.11781
809.698	-107.97035
809.885	64.813
810.072	-21.59933
810.259	28.97868
810.446	12.11781
810.633	12.11781
810.82	-27.92059
811.008	-15.27784
811.195	-63.73688
811.382	-34.24164
811.569	-4.74153
811.756	-0.52684
811.943	-2.6342
812.13	-63.73688
812.317	-101.65198
812.504	81.6785
812.691	-38.45555
812.878	-55.31017
813.064	-8.95613
813.251	14.22533
813.438	-46.88306
813.625	-53.20343
813.812	22.65567
813.999	-15.27784
814.186	3.68794
814.372	7.90283
814.559	16.33288
814.746	50.05688
814.933	-44.77622
815.12	31.08639
815.306	-13.17063
815.493	-15.27784
815.68	-120.60637
815.866	5.79537
816.053	24.76332
816.24	-55.31017
816.426	14.22533
816.613	-19.49219
816.799	-30.02763
816.986	-44.77622
817.173	-13.17063
817.359	-25.81353
817.546	-55.31017
817.732	-36.3486
817.919	-72.16318
818.105	-17.38502
818.292	-36.3486
818.478	-57.41689
818.665	54.2728
818.851	-72.16318
819.037	-11.06339
819.224	12.11781
819.41	-91.12085
819.597	-13.17063
819.783	66.92111
819.969	-8.95613
820.156	7.90283
820.342	-13.17063
820.528	-15.27784
820.714	12.11781
820.901	-51.09666
821.087	-8.95613
821.273	-21.59933
821.459	-30.02763
821.646	-59.52357
821.832	28.97868
822.018	-51.09666
822.204	-70.05664
822.39	-38.45555
822.576	-0.52684
822.762	-6.84884
822.948	-27.92059
823.134	7.90283
823.32	-84.80186
823.507	-30.02763
823.693	39.51749
823.879	-30.02763
824.065	-13.17063
824.25	-72.16318
824.436	-38.45555
824.622	-15.27784
824.808	-44.77622
824.994	-34.24164
825.18	-67.95008
825.366	-42.66935
825.552	-30.02763
825.738	-32.13465
825.923	1.58054
826.109	24.76332
826.295	56.38079
826.481	-95.33338
826.667	-61.63024
826.852	-2.6342
827.038	-63.73688
827.224	-38.45555
827.409	7.90283
827.595	54.2728
827.781	-36.3486
827.966	-84.80186
828.152	26.87099
828.338	-38.45555
828.523	-25.81353
828.709	39.51749
828.894	-38.45555
829.08	-55.31017
829.266	22.65567
829.451	-15.27784
829.637	-36.3486
829.822	7.90283
830.008	-59.52357
830.193	-13.17063
830.378	-6.84884
830.564	45.84105
830.749	-15.27784
830.935	-36.3486
831.12	-17.38502
831.305	-27.92059
831.491	35.30189
831.676	-143.7699
831.861	45.84105
832.047	-42.66935
832.232	-36.3486
832.417	-61.63024
832.602	43.73317
832.788	3.68794
832.973	3.68794
833.158	-21.59933
833.343	7.90283
833.528	16.33288
833.714	-82.69548
833.899	75.35377
834.084	-0.52684
834.269	-51.09666
834.454	45.84105
834.639	3.68794
834.824	14.22533
835.009	-55.31017
835.194	-27.92059
835.379	3.68794
835.564	28.97868
835.749	-13.17063
835.934	5.79537
836.119	24.76332
836.304	-44.77622
836.489	-53.20343
836.674	-15.27784
836.859	-55.31017
837.044	37.40968
837.228	-0.52684
837.413	-30.02763
837.598	-51.09666
837.783	-30.02763
837.968	47.94895
838.152	-11.06339
838.337	-76.37618
838.522	22.65567
838.707	-51.09666
838.891	35.30189
839.076	-17.38502
839.261	-38.45555
839.445	-84.80186
839.63	-11.06339
839.815	-13.17063
839.999	-36.3486
840.184	43.73317
840.368	-0.52684
840.553	14.22533
840.737	14.22533
840.922	-42.66935
841.106	-38.45555
841.291	-8.95613
841.475	12.11781
841.66	-57.41689
841.844	37.40968
842.029	-0.52684
842.213	-70.05664
842.397	-4.74153
842.582	35.30189
842.766	-27.92059
842.951	-30.02763
843.135	58.48881
843.319	-70.05664
843.504	-23.70644
843.688	-17.38502
843.872	-55.31017
844.056	-42.66935
844.241	-8.95613
844.425	-32.13465
844.609	10.01031
844.793	-42.66935
844.977	37.40968
845.161	33.19413
845.346	5.79537
845.53	-38.45555
845.714	-42.66935
845.898	-80.58907
846.082	-42.66935
846.266	-55.31017
846.45	-30.02763
846.634	-13.17063
846.818	-120.60637
847.002	-13.17063
847.186	-17.38502
847.37	16.33288
847.554	-57.41689
847.738	14.22533
847.922	20.54805
848.106	-55.31017
848.29	-30.02763
848.473	-13.17063
848.657	7.90283
848.841	39.51749
849.025	-53.20343
849.209	-8.95613
849.392	-4.74153
849.576	-51.09666
849.76	-4.74153
849.944	-0.52684
850.127	62.70491
850.311	-11.06339
850.495	-72.16318
850.678	3.68794
850.862	37.40968
851.046	-84.80186
851.229	-21.59933
851.413	-30.02763
851.596	-34.24164
851.78	81.6785
851.964	-55.31017
852.147	-8.95613
852.331	-6.84884
852.514	-17.38502
852.698	43.73317
852.881	7.90283
853.065	14.22533
853.248	14.22533
853.431	-4.74153
853.615	12.11781
853.798	12.11781
853.982	-63.73688
854.165	-59.52357
854.348	20.54805
854.532	50.05688
854.715	-78.48264
854.898	-13.17063
855.081	12.11781
855.265	-42.66935
855.448	-44.77622
855.631	-46.88306
855.814	-36.3486
855.997	3.68794
856.181	-74.26969
856.364	-17.38502
856.547	-46.88306
856.73	-19.49219
856.913	28.97868
857.096	-6.84884
857.279	-21.59933
857.462	-36.3486
857.645	5.79537
857.828	33.19413
858.011	-8.95613
858.194	-13.17063
858.377	-8.95613
858.56	33.19413
858.743	-4.74153
858.926	-38.45555
859.109	-61.63024
859.292	-27.92059
859.475	-2.6342
859.658	24.76332
859.841	14.22533
860.023	-4.74153
860.206	-44.77622
860.389	3.68794
860.572	-6.84884
860.755	-21.59933
860.937	-36.3486
861.12	45.84105
861.303	20.54805
861.486	-2.6342
861.668	7.90283
861.851	-74.26969
862.034	22.65567
862.216	-8.95613
862.399	-17.38502
862.581	-38.45555
862.764	-4.74153
862.947	12.11781
863.129	-6.84884
863.312	-89.01455
863.494	-8.95613
863.677	-36.3486
863.859	-21.59933
864.042	-36.3486
864.224	-4.74153
864.406	-23.70644
864.589	37.40968
864.771	-13.17063
864.954	-44.77622
865.136	-57.41689
865.318	58.48881
865.501	41.62532
865.683	28.97868
865.865	-4.74153
866.048	-11.06339
866.23	-0.52684
866.412	-30.02763
866.594	-46.88306
866.777	58.48881
866.959	-6.84884
867.141	22.65567
867.323	-61.63024
867.505	5.79537
867.687	-21.59933
867.869	-34.24164
868.052	-25.81353
868.234	-42.66935
868.416	60.59685
868.598	-27.92059
868.78	-25.81353
868.962	-19.49219
869.144	7.90283
869.326	-34.24164
869.508	-8.95613
869.69	-0.52684
869.872	-53.20343
870.054	33.19413
870.236	-78.48264
870.417	-89.01455
870.599	-15.27784
870.781	-13.17063
870.963	-61.63024
871.145	26.87099
871.327	-13.17063
871.508	-76.37618
871.69	12.11781
871.872	-30.02763
872.054	12.11781
872.235	-72.16318
872.417	-8.95613
872.599	-59.52357
872.78	-21.59933
872.962	-57.41689
873.144	37.40968
873.325	-25.81353
873.507	-53.20343
873.689	-6.84884
873.87	3.68794
874.052	5.79537
874.233	54.2728
874.415	14.22533
874.596	-19.49219
874.778	-40.56246
874.959	-55.31017
875.141	28.97868
875.322	20.54805
875.503	-21.59933
875.685	5.79537
875.866	-67.95008
876.048	28.97868
876.229	5.79537
876.41	-30.02763
876.592	7.90283
876.773	-46.88306
876.954	33.19413
877.136	28.97868
877.317	5.79537
877.498	10.01031
877.679	-8.95613
877.86	-19.49219
878.042	-30.02763
878.223	24.76332
878.404	41.62532
878.585	-4.74153
878.766	-27.92059
878.947	-42.66935
879.128	-105.86425
879.309	7.90283
879.49	-0.52684
879.672	-36.3486
879.853	-15.27784
880.034	-30.02763
880.215	7.90283
880.396	-38.45555
880.576	-4.74153
880.757	20.54805
880.938	71.13739
881.119	-61.63024
881.3	22.65567
881.481	-6.84884
881.662	28.97868
881.843	-15.27784
882.023	-46.88306
882.204	-27.92059
882.385	-80.58907
882.566	20.54805
882.747	-55.31017
882.927	22.65567
883.108	-42.66935
883.289	-84.80186
883.469	24.76332
883.65	-6.84884
883.831	-34.24164
884.011	45.84105
884.192	-17.38502
884.373	-93.22713
884.553	54.2728
884.734	-53.20343
884.914	-30.02763
885.095	3.68794
885.275	-15.27784
885.456	-36.3486
885.636	16.33288
885.817	-4.74153
885.997	-36.3486
886.178	66.92111
886.358	5.79537
886.538	-4.74153
886.719	14.22533
886.899	-4.74153
887.08	-80.58907
887.26	20.54805
887.44	-13.17063
887.621	28.97868
887.801	-107.97035
887.981	-25.81353
888.161	-23.70644
888.342	-4.74153
888.522	12.11781
888.702	-63.73688
888.882	-61.63024
889.062	-55.31017
889.242	75.35377
889.423	-46.88306
889.603	-59.52357
889.783	-51.09666
889.963	-67.95008
890.143	24.76332
890.323	-97.43961
890.503	-48.98987
890.683	-44.77622
890.863	56.38079
891.043	-67.95008
891.223	58.48881
891.403	-59.52357
891.583	41.62532
891.763	31.08639
891.943	33.19413
892.122	-8.95613
892.302	-55.31017
892.482	39.51749
892.662	-74.26969
892.842	-57.41689
893.022	-23.70644
893.201	18.44046
893.381	5.79537
893.561	-51.09666
893.741	-11.06339
893.92	41.62532
894.1	-46.88306
894.28	-0.52684
894.459	26.87099
894.639	-17.38502
894.819	-80.58907
894.998	14.22533
895.178	37.40968
895.357	28.97868
895.537	-15.27784
895.716	-23.70644
895.896	3.68794
896.075	79.57023
896.255	-2.6342
896.434	-25.81353
896.614	-23.70644
896.793	-0.52684
896.973	10.01031
897.152	-25.81353
897.331	-53.20343
897.511	22.65567
897.69	-11.06339
897.87	-13.17063
898.049	-15.27784
898.228	-2.6342
898.407	7.90283
898.587	-11.06339
898.766	-30.02763
898.945	-21.59933
899.124	31.08639
899.304	3.68794
899.483	-46.88306
899.662	-91.12085
899.841	-13.17063
900.02	-25.81353
900.199	-34.24164
900.378	-40.56246
900.557	-78.48264
900.737	-17.38502
900.916	-13.17063
901.095	-13.17063
901.274	-19.49219
901.453	-17.38502
901.632	-55.31017
901.811	5.79537
901.989	28.97868
902.168	-25.81353
902.347	-0.52684
902.526	-53.20343
902.705	-34.24164
902.884	47.94895
903.063	-2.6342
903.242	-42.66935
903.42	85.8951
903.599	33.19413
903.778	-19.49219
903.957	-36.3486
904.135	-4.74153
904.314	-13.17063
904.493	37.40968
904.672	-63.73688
904.85	18.44046
905.029	3.68794
905.207	12.11781
905.386	-30.02763
905.565	52.16483
905.743	-6.84884
905.922	-53.20343
906.1	-59.52357
906.279	-51.09666
906.457	-59.52357
906.636	58.48881
906.814	37.40968
906.993	5.79537
907.171	-13.17063
907.35	1.58054
907.528	-38.45555
907.707	-46.88306
907.885	14.22533
908.063	12.11781
908.242	-51.09666
908.42	-8.95613
908.598	-65.84349
908.777	-19.49219
908.955	-2.6342
909.133	28.97868
909.311	-19.49219
909.49	5.79537
909.668	33.19413
909.846	-76.37618
910.024	-44.77622
910.202	-53.20343
910.38	-27.92059
910.559	-53.20343
910.737	-59.52357
910.915	3.68794
911.093	-23.70644
911.271	-17.38502
911.449	5.79537
911.627	7.90283
911.805	-95.33338
911.983	-11.06339
912.161	-38.45555
912.339	-32.13465
912.517	-30.02763
912.695	-0.52684
912.872	-0.52684
913.05	-2.6342
913.228	-21.59933
913.406	41.62532
913.584	45.84105
913.762	-4.74153
913.939	-44.77622
914.117	12.11781
914.295	-13.17063
914.473	-74.26969
914.65	-38.45555
914.828	-21.59933
915.006	-27.92059
915.184	-6.84884
915.361	-46.88306
915.539	-38.45555
915.716	-11.06339
915.894	-15.27784
916.072	35.30189
916.249	-30.02763
916.427	-2.6342
916.604	-4.74153
916.782	-25.81353
916.959	-23.70644
917.137	-21.59933
917.314	-0.52684
917.492	-48.98987
917.669	-11.06339
917.847	-74.26969
918.024	-48.98987
918.201	20.54805
918.379	-55.31017
918.556	-38.45555
918.733	24.76332
918.911	-21.59933
919.088	3.68794
919.265	45.84105
919.442	-25.81353
919.62	-72.16318
919.797	-36.3486
919.974	-51.09666
920.151	-19.49219
920.328	-17.38502
920.506	-55.31017
920.683	64.813
920.86	-27.92059
921.037	-42.66935
921.214	-101.65198
921.391	-48.98987
921.568	-30.02763
921.745	7.90283
921.922	-44.77622
922.099	31.08639
922.276	-11.06339
922.453	50.05688
922.63	-19.49219
922.807	56.38079
922.984	-17.38502
923.161	-2.6342
923.338	-4.74153
923.514	-65.84349
923.691	-42.66935
923.868	20.54805
924.045	-42.66935
924.222	-27.92059
924.399	-0.52684
924.575	-11.06339
924.752	-55.31017
924.929	-11.06339
925.105	-70.05664
925.282	-84.80186
925.459	28.97868
925.635	7.90283
925.812	28.97868
925.989	37.40968
926.165	-4.74153
926.342	-55.31017
926.518	-53.20343
926.695	-30.02763
926.871	12.11781
927.048	73.24557
927.224	-70.05664
927.401	-38.45555
927.577	7.90283
927.754	-59.52357
927.93	71.13739
928.107	-34.24164
928.283	-25.81353
928.459	41.62532
928.636	-59.52357
928.812	-112.18246
928.988	-42.66935
929.165	3.68794
929.341	-53.20343
929.517	73.24557
929.693	-42.66935
929.87	-120.60637
930.046	-82.69548
930.222	-38.45555
930.398	-42.66935
930.574	18.44046
930.751	-0.52684
930.927	-53.20343
931.103	28.97868
931.279	-30.02763
931.455	-42.66935
931.631	-4.74153
931.807	33.19413
931.983	-76.37618
932.159	-46.88306
932.335	22.65567
932.511	-38.45555
932.687	-2.6342
932.863	-13.17063
933.039	45.84105
933.215	-32.13465
933.391	16.33288
933.566	-63.73688
933.742	35.30189
933.918	14.22533
934.094	-44.77622
934.27	22.65567
934.445	5.79537
934.621	-34.24164
934.797	28.97868
934.973	-15.27784
935.148	10.01031
935.324	16.33288
935.5	14.22533
935.675	-80.58907
935.851	20.54805
936.027	-2.6342
936.202	50.05688
936.378	37.40968
936.553	10.01031
936.729	-74.26969
936.904	45.84105
937.08	-70.05664
937.255	50.05688
937.431	24.76332
937.606	-0.52684
937.782	-63.73688
937.957	73.24557
938.133	-89.01455
938.308	-30.02763
938.483	26.87099
938.659	-8.95613
938.834	3.68794
939.009	12.11781
939.185	-38.45555
939.36	-44.77622
939.535	-15.27784
939.71	14.22533
939.886	12.11781
940.061	16.33288
940.236	-17.38502
940.411	20.54805
940.586	-2.6342
940.761	3.68794
940.937	22.65567
941.112	37.40968
941.287	33.19413
941.462	-44.77622
941.637	-11.06339
941.812	-61.63024
941.987	22.65567
942.162	-42.66935
942.337	-42.66935
942.512	41.62532
942.687	-76.37618
942.862	-32.13465
943.037	-30.02763
943.212	-21.59933
943.386	-6.84884
943.561	-23.70644
943.736	-4.74153
943.911	3.68794
944.086	24.76332
944.26	-8.95613
944.435	22.65567
944.61	12.11781
944.785	7.90283
944.959	16.33288
945.134	7.90283
945.309	-19.49219
945.483	-17.38502
945.658	-40.56246
945.833	-46.88306
946.007	77.46199
946.182	28.97868
946.357	-13.17063
946.531	-44.77622
946.706	-76.37618
946.88	-70.05664
947.055	7.90283
947.229	-11.06339
947.404	-55.31017
947.578	-40.56246
947.752	3.68794
947.927	-25.81353
948.101	-27.92059
948.276	1.58054
948.45	14.22533
948.624	-59.52357
948.799	12.11781
948.973	-76.37618
949.147	18.44046
949.321	-124.81816
949.496	47.94895
949.67	-59.52357
949.844	-40.56246
950.018	-42.66935
950.193	-61.63024
950.367	-59.52357
950.541	-19.49219
950.715	79.57023
950.889	64.813
951.063	16.33288
951.237	43.73317
951.411	7.90283
951.585	-57.41689
951.759	14.22533
951.933	-2.6342
952.107	-25.81353
952.281	14.22533
952.455	24.76332
952.629	-53.20343
952.803	-72.16318
952.977	-36.3486
953.151	-48.98987
953.325	-95.33338
953.499	28.97868
953.672	12.11781
953.846	-72.16318
954.02	-13.17063
954.194	-44.77622
954.368	7.90283
954.541	5.79537
954.715	-53.20343
954.889	-38.45555
955.062	-44.77622
955.236	26.87099
955.41	-89.01455
955.583	66.92111
955.757	7.90283
955.93	-2.6342
956.104	-46.88306
956.278	10.01031
956.451	3.68794
956.625	43.73317
956.798	-59.52357
956.972	-4.74153
957.145	18.44046
957.319	20.54805
957.492	-103.75813
957.665	-17.38502
957.839	-25.81353
958.012	37.40968
958.185	-36.3486
958.359	-72.16318
958.532	-53.20343
958.705	-2.6342
958.879	-57.41689
959.052	-42.66935
959.225	28.97868
959.398	33.19413
959.572	18.44046
959.745	3.68794
959.918	10.01031
960.091	-72.16318
960.264	-89.01455
960.438	7.90283
960.611	-67.95008
960.784	-38.45555
960.957	-25.81353
961.13	12.11781
961.303	-2.6342
961.476	-25.81353
961.649	-21.59933
961.822	10.01031
961.995	-32.13465
962.168	-27.92059
962.341	22.65567
962.514	12.11781
962.686	47.94895
962.859	-11.06339
963.032	-44.77622
963.205	-15.27784
963.378	-17.38502
963.551	12.11781
963.723	-55.31017
963.896	-0.52684
964.069	41.62532
964.242	-17.38502
964.414	-4.74153
964.587	10.01031
964.76	-67.95008
964.932	-15.27784
965.105	-17.38502
965.278	12.11781
965.45	-4.74153
965.623	-114.28848
965.795	-78.48264
965.968	18.44046
966.14	22.65567
966.313	-25.81353
966.485	22.65567
966.658	12.11781
966.83	-59.52357
967.003	-30.02763
967.175	-44.77622
967.348	-78.48264
967.52	-51.09666
967.692	-59.52357
967.865	-61.63024
968.037	12.11781
968.209	-0.52684
968.382	-17.38502
968.554	12.11781
968.726	-21.59933
968.898	-74.26969
969.071	33.19413
969.243	-63.73688
969.415	20.54805
969.587	-32.13465
969.759	-6.84884
969.932	-59.52357
970.104	-40.56246
970.276	39.51749
970.448	83.78679
970.62	-4.74153
970.792	-67.95008
970.964	-101.65198
971.136	50.05688
971.308	-51.09666
971.48	-46.88306
971.652	-32.13465
971.824	-2.6342
971.996	-57.41689
972.168	-15.27784
972.339	5.79537
972.511	54.2728
972.683	-13.17063
972.855	10.01031
973.027	-4.74153
973.199	-63.73688
973.37	-11.06339
973.542	-70.05664
973.714	-0.52684
973.886	-23.70644
974.057	58.48881
974.229	20.54805
974.401	58.48881
974.572	-0.52684
974.744	16.33288
974.915	-4.74153
975.087	-82.69548
975.259	28.97868
975.43	12.11781
975.602	-48.98987
975.773	-101.65198
975.945	-21.59933
976.116	54.2728
976.288	3.68794
976.459	28.97868
976.63	54.2728
976.802	37.40968
976.973	3.68794
977.145	-76.37618
977.316	12.11781
977.487	20.54805
977.659	7.90283
977.83	7.90283
978.001	-8.95613
978.172	-4.74153
978.344	-63.73688
978.515	-17.38502
978.686	33.19413
978.857	-30.02763
979.028	3.68794
979.2	-19.49219
979.371	-107.97035
979.542	-30.02763
979.713	-23.70644
979.884	-32.13465
980.055	37.40968
980.226	7.90283
980.397	-51.09666
980.568	3.68794
980.739	31.08639
980.91	-36.3486
981.081	-25.81353
981.252	1.58054
981.423	60.59685
981.594	31.08639
981.765	90.11179
981.936	-46.88306
982.106	-17.38502
982.277	-4.74153
982.448	-70.05664
982.619	3.68794
982.79	-38.45555
982.96	56.38079
983.131	-2.6342
983.302	-2.6342
983.472	-36.3486
983.643	-55.31017
983.814	1.58054
983.984	18.44046
984.155	-61.63024
984.326	1.58054
984.496	-57.41689
984.667	22.65567
984.837	-23.70644
985.008	3.68794
985.178	-13.17063
985.349	-4.74153
985.519	-25.81353
985.69	12.11781
985.86	-11.06339
986.031	43.73317
986.201	-30.02763
986.371	50.05688
986.542	24.76332
986.712	7.90283
986.882	-27.92059
987.053	45.84105
987.223	-25.81353
987.393	-76.37618
987.563	-21.59933
987.734	39.51749
987.904	-55.31017
988.074	10.01031
988.244	31.08639
988.414	-4.74153
988.585	-63.73688
988.755	-4.74153
988.925	7.90283
989.095	31.08639
989.265	45.84105
989.435	-38.45555
989.605	-36.3486
989.775	-55.31017
989.945	-53.20343
990.115	-38.45555
990.285	-36.3486
990.455	-17.38502
990.625	-4.74153
990.795	-48.98987
990.965	18.44046
991.134	-34.24164
991.304	-21.59933
991.474	-0.52684
991.644	-48.98987
991.814	-25.81353
991.984	-19.49219
992.153	-15.27784
992.323	-42.66935
992.493	-74.26969
992.662	-19.49219
992.832	-17.38502
993.002	-13.17063
993.171	-0.52684
993.341	-80.58907
993.511	-46.88306
993.68	-55.31017
993.85	-40.56246
994.019	-8.95613
994.189	-25.81353
994.358	18.44046
994.528	-4.74153
994.697	-101.65198
994.867	-57.41689
995.036	-15.27784
995.206	-4.74153
995.375	-21.59933
995.544	-17.38502
995.714	-55.31017
995.883	-27.92059
996.052	-8.95613
996.222	14.22533
996.391	-6.84884
996.56	39.51749
996.73	33.19413
996.899	-2.6342
997.068	22.65567
997.237	54.2728
997.406	5.79537
997.576	3.68794
997.745	-21.59933
997.914	-13.17063
998.083	-27.92059
998.252	-11.06339
998.421	-57.41689
998.59	52.16483
998.759	5.79537
998.928	-38.45555
999.097	-48.98987
999.266	12.11781
999.435	-2.6342
999.604	-42.66935
999.773	20.54805
999.942	39.51749
1000.111	-67.95008
1000.28	-11.06339
1000.448	1.58054
1000.617	-55.31017
1000.786	-76.37618
1000.955	-8.95613
1001.124	37.40968
1001.292	-36.3486
1001.461	-44.77622
1001.63	10.01031
1001.798	-76.37618
1001.967	-57.41689
1002.136	-78.48264
1002.304	20.54805
1002.473	14.22533
1002.642	56.38079
1002.81	-25.81353
1002.979	-19.49219
1003.147	-82.69548
1003.316	31.08639
1003.484	-55.31017
1003.653	-53.20343
1003.821	-101.65198
1003.99	37.40968
1004.158	14.22533
1004.327	-4.74153
1004.495	-80.58907
1004.663	20.54805
1004.832	-19.49219
1005	-8.95613
1005.168	-30.02763
1005.337	-63.73688
1005.505	-30.02763
1005.673	-51.09666
1005.842	-4.74153
1006.01	-13.17063
1006.178	-91.12085
1006.346	3.68794
1006.514	28.97868
1006.683	-0.52684
1006.851	-63.73688
1007.019	-63.73688
1007.187	-34.24164
1007.355	-15.27784
1007.523	-82.69548
1007.691	-55.31017
1007.859	41.62532
1008.027	-129.02985
1008.195	39.51749
1008.363	7.90283
1008.531	-65.84349
1008.699	16.33288
1008.867	-0.52684
1009.035	5.79537
1009.203	-13.17063
1009.37	18.44046
1009.538	-13.17063
1009.706	-63.73688
1009.874	-30.02763
1010.042	-4.74153
1010.209	7.90283
1010.377	33.19413
1010.545	7.90283
1010.713	56.38079
1010.88	-4.74153
1011.048	35.30189
1011.216	-4.74153
1011.383	-8.95613
1011.551	28.97868
1011.718	73.24557
1011.886	-23.70644
1012.054	-6.84884
1012.221	-59.52357
1012.389	-34.24164
1012.556	-30.02763
1012.724	-51.09666
1012.891	14.22533
1013.058	-17.38502
1013.226	-32.13465
1013.393	-2.6342
1013.561	37.40968
1013.728	-13.17063
1013.895	14.22533
1014.063	20.54805
1014.23	20.54805
1014.397	-4.74153
1014.565	-51.09666
1014.732	-80.58907
1014.899	-21.59933
1015.066	-2.6342
1015.233	-46.88306
1015.401	-59.52357
1015.568	-97.43961
1015.735	10.01031
1015.902	-34.24164
1016.069	33.19413
1016.236	10.01031
1016.403	-72.16318
1016.57	-72.16318
1016.737	-78.48264
1016.904	-6.84884
1017.071	-30.02763
1017.238	-63.73688
1017.405	12.11781
1017.572	-67.95008
1017.739	28.97868
1017.906	-34.24164
1018.073	12.11781
1018.24	50.05688
1018.407	-13.17063
1018.573	-17.38502
1018.74	41.62532
1018.907	24.76332
1019.074	-25.81353
1019.241	-23.70644
1019.407	-67.95008
1019.574	-17.38502
1019.741	7.90283
1019.907	54.2728
1020.074	-8.95613
1020.241	-70.05664
1020.407	-21.59933
1020.574	26.87099
1020.74	-0.52684
1020.907	-21.59933
1021.073	22.65567
1021.24	14.22533
1021.406	-32.13465
1021.573	-6.84884
1021.739	12.11781
1021.906	7.90283
1022.072	-8.95613
1022.239	-2.6342
1022.405	-48.98987
1022.571	-38.45555
1022.738	-51.09666
1022.904	-6.84884
1023.07	62.70491
1023.237	10.01031
1023.403	-44.77622
1023.569	-19.49219
1023.735	-13.17063
1023.902	7.90283
1024.068	-38.45555
1024.234	28.97868
1024.4	-32.13465
1024.566	-76.37618
1024.732	5.79537
1024.898	-11.06339
1025.065	-0.52684
1025.231	-59.52357
1025.397	-38.45555
1025.563	26.87099
1025.729	-23.70644
1025.895	-11.06339
1026.061	-17.38502
1026.227	-8.95613
1026.392	33.19413
1026.558	20.54805
1026.724	-72.16318
1026.89	-44.77622
1027.056	28.97868
1027.222	16.33288
1027.388	-8.95613
1027.553	24.76332
1027.719	-0.52684
1027.885	37.40968
1028.051	-34.24164
1028.216	12.11781
1028.382	-19.49219
1028.548	-19.49219
1028.713	-30.02763
1028.879	-72.16318
1029.045	-21.59933
1029.21	-2.6342
1029.376	47.94895
1029.541	37.40968
1029.707	-8.95613
1029.873	-30.02763
1030.038	-13.17063
1030.204	10.01031
1030.369	12.11781
1030.534	14.22533
1030.7	-4.74153
1030.865	28.97868
1031.031	-86.90822
1031.196	5.79537
1031.361	12.11781
1031.527	-4.74153
1031.692	-25.81353
1031.857	7.90283
1032.023	64.813
1032.188	-2.6342
1032.353	3.68794
1032.518	39.51749
1032.684	14.22533
1032.849	-131.13565
1033.014	-95.33338
1033.179	39.51749
1033.344	-84.80186
1033.509	12.11781
1033.674	-30.02763
1033.839	14.22533
1034.004	-25.81353
1034.17	-2.6342
1034.335	-2.6342
1034.5	31.08639
1034.664	-48.98987
1034.829	-17.38502
1034.994	-30.02763
1035.159	-0.52684
1035.324	-19.49219
1035.489	26.87099
1035.654	20.54805
1035.819	-15.27784
1035.984	-27.92059
1036.148	3.68794
1036.313	7.90283
1036.478	-82.69548
1036.643	-17.38502
1036.807	-19.49219
1036.972	-147.9811
1037.137	-25.81353
1037.301	33.19413
1037.466	-55.31017
1037.631	-42.66935
1037.795	-4.74153
1037.96	33.19413
1038.124	-86.90822
1038.289	-21.59933
1038.454	-13.17063
1038.618	28.97868
1038.783	-11.06339
1038.947	-0.52684
1039.111	31.08639
1039.276	-4.74153
1039.44	-93.22713
1039.605	45.84105
1039.769	-11.06339
1039.933	-36.3486
1040.098	-0.52684
1040.262	-21.59933
1040.426	5.79537
1040.591	28.97868
1040.755	-72.16318
1040.919	7.90283
1041.083	-38.45555
1041.248	-46.88306
1041.412	-53.20343
1041.576	-40.56246
1041.74	-11.06339
1041.904	73.24557
1042.068	3.68794
1042.232	83.78679
1042.397	18.44046
1042.561	-51.09666
1042.725	33.19413
1042.889	-25.81353
1043.053	-76.37618
1043.217	-2.6342
1043.381	-95.33338
1043.544	-65.84349
1043.708	-17.38502
1043.872	37.40968
1044.036	-70.05664
1044.2	-65.84349
1044.364	22.65567
1044.528	-42.66935
1044.691	28.97868
1044.855	-2.6342
1045.019	-8.95613
1045.183	-46.88306
1045.346	-0.52684
1045.51	3.68794
1045.674	18.44046
1045.837	-70.05664
1046.001	-34.24164
1046.165	41.62532
1046.328	-38.45555
1046.492	22.65567
1046.655	-13.17063
1046.819	14.22533
1046.983	-25.81353
1047.146	20.54805
1047.31	-59.52357
1047.473	3.68794
1047.636	-67.95008
1047.8	37.40968
1047.963	-25.81353
1048.127	-17.38502
1048.29	28.97868
