Data from Scatter_Coeff_Baseline_USB4F045381__53__0053.txt Node

Date: Thu Feb 13 19:33:18 EST 2025
User: mmckonesweet
Spectrometer: USB4F04538
Trigger mode: 4
Integration Time (sec): 2.400000E-3
Scans to average: 1
Electric dark correction enabled: true
Nonlinearity correction enabled: true
Boxcar width: 0
XAxis mode: Wavelengths
Number of Pixels in Spectrum: 3648
>>>>>Begin Spectral Data<<<<<
345.52	7.55158
345.736	7.55158
345.952	7.55158
346.168	1.22931
346.384	13.87408
346.6	75.0024
346.816	-17.73622
347.032	-26.16471
347.248	13.87408
347.464	56.02946
347.68	20.19678
347.896	-43.0205
348.112	-19.84338
348.328	30.7351
348.544	-45.12736
348.76	-32.48582
348.975	-11.4146
349.191	-66.19459
349.407	13.87408
349.623	-5.09275
349.839	32.84284
350.055	77.11062
350.27	37.05838
350.486	30.7351
350.702	53.92147
350.918	-11.4146
351.133	-45.12736
351.349	3.33671
351.565	68.67788
351.781	51.8135
351.996	-19.84338
352.212	58.13747
352.428	26.51971
352.644	-28.27177
352.859	22.3044
353.075	30.7351
353.291	-0.87807
353.506	-51.44779
353.722	-2.98542
353.938	-11.4146
354.153	24.41204
354.369	-89.3656
354.584	66.56975
354.8	-49.34101
355.016	-43.0205
355.231	26.51971
355.447	72.8942
355.662	24.41204
355.878	81.32712
356.093	53.92147
356.309	-43.0205
356.524	22.3044
356.74	-55.66129
356.955	58.13747
357.171	-19.84338
357.386	-36.69976
357.602	-28.27177
357.817	5.44413
358.033	58.13747
358.248	-57.768
358.464	-9.30734
358.679	20.19678
358.895	-36.69976
359.11	58.13747
359.325	108.73657
359.541	66.56975
359.756	-9.30734
359.972	-45.12736
360.187	24.41204
360.402	7.55158
360.618	-11.4146
360.833	64.46165
361.048	9.65906
361.264	7.55158
361.479	13.87408
361.694	-57.768
361.909	-21.95051
362.125	-93.57817
362.34	34.9506
362.555	45.48974
362.77	32.84284
362.986	43.38186
363.201	18.08919
363.416	-47.2342
363.631	-51.44779
363.847	-9.30734
364.062	-32.48582
364.277	3.33671
364.492	-13.52183
364.707	-68.30117
364.922	72.8942
365.138	41.27401
365.353	-49.34101
365.568	-40.91361
365.783	7.55158
365.998	-2.98542
366.213	77.11062
366.428	-11.4146
366.643	13.87408
366.858	-0.87807
367.073	-7.20006
367.288	-68.30117
367.503	5.44413
367.718	39.16618
367.933	7.55158
368.148	-24.05762
368.363	-7.20006
368.578	5.44413
368.793	37.05838
369.008	-2.98542
369.223	18.08919
369.438	30.7351
369.653	3.33671
369.868	1.22931
370.083	-13.52183
370.298	89.7604
370.513	1.22931
370.728	37.05838
370.943	30.7351
371.157	39.16618
371.372	37.05838
371.587	18.08919
371.802	66.56975
372.017	-28.27177
372.232	51.8135
372.446	32.84284
372.661	-19.84338
372.876	-32.48582
373.091	89.7604
373.306	-19.84338
373.52	-24.05762
373.735	-5.09275
373.95	62.35357
374.165	-36.69976
374.379	62.35357
374.594	58.13747
374.809	-47.2342
375.023	-45.12736
375.238	102.41098
375.453	39.16618
375.667	22.3044
375.882	-0.87807
376.097	58.13747
376.311	-28.27177
376.526	58.13747
376.741	22.3044
376.955	93.97717
377.17	-19.84338
377.384	43.38186
377.599	9.65906
377.813	39.16618
378.028	5.44413
378.242	13.87408
378.457	96.08559
378.672	-59.87469
378.886	5.44413
379.101	96.08559
379.315	-70.40773
379.53	-15.62904
379.744	-19.84338
379.958	1.22931
380.173	-40.91361
380.387	81.32712
380.602	-11.4146
380.816	30.7351
381.031	-24.05762
381.245	62.35357
381.459	22.3044
381.674	-9.30734
381.888	49.70556
382.103	-32.48582
382.317	-0.87807
382.531	-21.95051
382.746	-53.55456
382.96	5.44413
383.174	-7.20006
383.388	-19.84338
383.603	3.33671
383.817	7.55158
384.031	-36.69976
384.246	24.41204
384.46	11.76656
384.674	-9.30734
384.888	-2.98542
385.103	-43.0205
385.317	-43.0205
385.531	-17.73622
385.745	-17.73622
385.959	32.84284
386.174	24.41204
386.388	7.55158
386.602	-7.20006
386.816	49.70556
387.03	24.41204
387.244	13.87408
387.458	-83.04654
387.672	22.3044
387.887	81.32712
388.101	91.86877
388.315	39.16618
388.529	-15.62904
388.743	68.67788
388.957	-0.87807
389.171	-2.98542
389.385	34.9506
389.599	-24.05762
389.813	20.19678
390.027	-2.98542
390.241	49.70556
390.455	11.76656
390.669	-2.98542
390.883	-68.30117
391.097	5.44413
391.311	13.87408
391.525	-28.27177
391.738	68.67788
391.952	5.44413
392.166	-9.30734
392.38	-15.62904
392.594	-17.73622
392.808	134.0409
393.022	-45.12736
393.236	39.16618
393.449	34.9506
393.663	1.22931
393.877	56.02946
394.091	87.65205
394.305	43.38186
394.518	30.7351
394.732	1.22931
394.946	1.22931
395.16	32.84284
395.373	13.87408
395.587	60.24551
395.801	60.24551
396.015	5.44413
396.228	32.84284
396.442	7.55158
396.656	1.22931
396.869	18.08919
397.083	-53.55456
397.297	22.3044
397.51	32.84284
397.724	30.7351
397.938	5.44413
398.151	13.87408
398.365	7.55158
398.578	-2.98542
398.792	77.11062
399.005	66.56975
399.219	5.44413
399.433	41.27401
399.646	22.3044
399.86	7.55158
400.073	22.3044
400.287	66.56975
400.5	70.78603
400.714	37.05838
400.927	-19.84338
401.141	-32.48582
401.354	-40.91361
401.567	-2.98542
401.781	7.55158
401.994	39.16618
402.208	1.22931
402.421	3.33671
402.635	43.38186
402.848	98.19403
403.061	66.56975
403.275	-45.12736
403.488	-9.30734
403.701	60.24551
403.915	13.87408
404.128	-2.98542
404.341	-28.27177
404.555	15.98162
404.768	-30.3788
404.981	30.7351
405.195	-49.34101
405.408	-28.27177
405.621	43.38186
405.834	22.3044
406.048	-2.98542
406.261	43.38186
406.474	-5.09275
406.687	85.54372
406.9	18.08919
407.114	-2.98542
407.327	64.46165
407.54	-24.05762
407.753	43.38186
407.966	-17.73622
408.179	20.19678
408.392	30.7351
408.605	5.44413
408.819	18.08919
409.032	13.87408
409.245	-51.44779
409.458	77.11062
409.671	-53.55456
409.884	30.7351
410.097	-34.5928
410.31	30.7351
410.523	-11.4146
410.736	30.7351
410.949	-11.4146
411.162	9.65906
411.375	1.22931
411.588	49.70556
411.801	-7.20006
412.014	-24.05762
412.227	34.9506
412.44	-7.20006
412.653	-2.98542
412.865	-7.20006
413.078	37.05838
413.291	11.76656
413.504	-13.52183
413.717	45.48974
413.93	22.3044
414.143	22.3044
414.356	-32.48582
414.568	34.9506
414.781	5.44413
414.994	9.65906
415.207	-5.09275
415.42	-28.27177
415.632	-2.98542
415.845	98.19403
416.058	18.08919
416.271	34.9506
416.483	62.35357
416.696	28.62739
416.909	28.62739
417.121	5.44413
417.334	1.22931
417.547	66.56975
417.759	98.19403
417.972	102.41098
418.185	24.41204
418.397	5.44413
418.61	7.55158
418.823	30.7351
419.035	91.86877
419.248	-19.84338
419.46	-19.84338
419.673	-24.05762
419.885	-24.05762
420.098	13.87408
420.311	-28.27177
420.523	56.02946
420.736	83.43541
420.948	5.44413
421.161	-2.98542
421.373	-19.84338
421.586	-45.12736
421.798	-53.55456
422.01	-11.4146
422.223	18.08919
422.435	7.55158
422.648	18.08919
422.86	58.13747
423.073	-11.4146
423.285	51.8135
423.497	39.16618
423.71	32.84284
423.922	75.0024
424.134	72.8942
424.347	66.56975
424.559	-11.4146
424.771	-53.55456
424.984	26.51971
425.196	-15.62904
425.408	60.24551
425.621	20.19678
425.833	34.9506
426.045	24.41204
426.257	91.86877
426.47	22.3044
426.682	28.62739
426.894	32.84284
427.106	-21.95051
427.318	34.9506
427.531	30.7351
427.743	39.16618
427.955	-2.98542
428.167	64.46165
428.379	45.48974
428.591	24.41204
428.804	47.59764
429.016	-7.20006
429.228	66.56975
429.44	51.8135
429.652	68.67788
429.864	5.44413
430.076	-40.91361
430.288	30.7351
430.5	79.21886
430.712	7.55158
430.924	75.0024
431.136	39.16618
431.348	30.7351
431.56	56.02946
431.772	-38.8067
431.984	24.41204
432.196	22.3044
432.408	22.3044
432.62	47.59764
432.832	1.22931
433.044	34.9506
433.256	39.16618
433.468	13.87408
433.679	39.16618
433.891	30.7351
434.103	77.11062
434.315	68.67788
434.527	136.14973
434.739	30.7351
434.95	41.27401
435.162	41.27401
435.374	-11.4146
435.586	106.62802
435.798	89.7604
436.009	102.41098
436.221	1.22931
436.433	9.65906
436.645	64.46165
436.856	56.02946
437.068	30.7351
437.28	15.98162
437.491	64.46165
437.703	34.9506
437.915	77.11062
438.126	43.38186
438.338	22.3044
438.55	-7.20006
438.761	64.46165
438.973	72.8942
439.184	64.46165
439.396	47.59764
439.608	68.67788
439.819	81.32712
440.031	47.59764
440.242	47.59764
440.454	7.55158
440.665	15.98162
440.877	30.7351
441.088	79.21886
441.3	56.02946
441.511	49.70556
441.723	58.13747
441.934	115.06236
442.146	20.19678
442.357	30.7351
442.569	51.8135
442.78	131.93208
442.991	56.02946
443.203	47.59764
443.414	53.92147
443.626	56.02946
443.837	125.60578
444.048	85.54372
444.26	51.8135
444.471	32.84284
444.682	5.44413
444.894	32.84284
445.105	56.02946
445.316	93.97717
445.528	51.8135
445.739	72.8942
445.95	119.27966
446.161	85.54372
446.373	79.21886
446.584	11.76656
446.795	72.8942
447.006	13.87408
447.217	-11.4146
447.429	89.7604
447.64	102.41098
447.851	98.19403
448.062	98.19403
448.273	60.24551
448.484	123.49705
448.695	100.3025
448.907	22.3044
449.118	85.54372
449.329	102.41098
449.54	41.27401
449.751	75.0024
449.962	9.65906
450.173	115.06236
450.384	47.59764
450.595	127.71452
450.806	-2.98542
451.017	106.62802
451.228	41.27401
451.439	56.02946
451.65	37.05838
451.861	64.46165
452.072	83.43541
452.283	13.87408
452.494	136.14973
452.705	100.3025
452.915	53.92147
453.126	70.78603
453.337	140.36746
453.548	100.3025
453.759	134.0409
453.97	30.7351
454.181	119.27966
454.391	98.19403
454.602	58.13747
454.813	89.7604
455.024	68.67788
455.235	81.32712
455.445	98.19403
455.656	119.27966
455.867	26.51971
456.078	102.41098
456.288	83.43541
456.499	119.27966
456.71	34.9506
456.921	165.67563
457.131	117.171
457.342	119.27966
457.553	83.43541
457.763	148.80318
457.974	172.00315
458.184	142.47636
458.395	136.14973
458.606	148.80318
458.816	131.93208
459.027	66.56975
459.237	144.58528
459.448	235.28834
459.659	138.25859
459.869	271.15779
460.08	106.62802
460.29	256.38735
460.501	174.11236
460.711	205.753
460.922	150.91217
461.132	178.33085
461.343	186.76807
461.553	250.05744
461.764	190.9868
461.974	104.51949
462.184	190.9868
462.395	222.62986
462.605	195.20561
462.816	161.45739
463.026	231.06877
463.236	245.8376
463.447	169.89395
463.657	241.61784
463.867	203.64348
464.078	201.53399
464.288	216.30089
464.498	292.26001
464.709	269.04767
464.919	241.61784
465.129	216.30089
465.339	275.37808
465.55	237.39815
465.76	266.93757
465.97	243.72771
466.18	302.81182
466.391	313.36408
466.601	317.58511
466.811	349.24509
467.021	359.79929
467.231	347.1343
467.441	334.46994
467.651	328.13799
467.862	334.46994
468.072	423.13331
468.282	402.02032
468.492	378.79793
468.702	423.13331
468.912	463.25235
469.122	326.02738
469.332	440.02485
469.542	475.92268
469.752	558.2926
469.962	499.153
470.172	625.89368
470.382	437.91335
470.592	621.66823
470.802	490.7054
471.012	668.15088
471.222	714.63918
471.432	602.65432
471.642	579.4165
471.852	769.58667
472.062	682.94202
472.272	716.75241
472.482	759.0193
472.691	818.19972
472.901	697.73371
473.111	790.72215
473.321	883.72929
473.531	877.38736
473.741	828.76843
473.95	900.64146
474.16	942.92406
474.37	894.29933
474.58	942.92406
474.79	1095.16356
474.999	1021.15431
475.209	951.38093
475.419	1158.60493
475.628	1279.15286
475.838	1112.08086
476.048	1302.41753
476.258	1217.82017
476.467	1458.92975
476.677	1437.77923
476.886	1526.61123
477.096	1391.24818
477.306	1528.72626
477.515	1416.62872
477.725	1598.52171
477.935	1532.95633
478.144	1691.57901
478.354	1600.6367
478.563	1801.54821
478.773	1712.72767
478.982	1966.47931
479.192	1864.98694
479.401	1970.70787
479.611	1892.4757
479.82	1928.42118
480.03	2067.9576
480.239	2270.86219
480.449	2237.05016
480.658	2260.29618
480.868	2249.72994
481.077	2279.31484
481.287	2317.34988
481.496	2456.7841
481.705	2380.73462
481.915	2446.2225
482.124	2279.31484
482.333	2591.94773
482.543	2456.7841
482.752	2693.28827
482.961	2807.26077
483.171	2792.48877
483.38	2661.62245
483.589	2845.2428
483.799	2794.5991
484.008	2963.37958
484.217	2891.65909
484.426	3279.58007
484.636	2893.76876
484.845	3254.29749
485.054	3163.68186
485.263	3361.73146
485.472	3167.89722
485.682	3294.32711
485.891	3422.80124
486.1	3427.0124
486.309	3523.84924
486.518	3776.28195
486.727	3401.74437
486.936	3557.52258
487.146	3563.83581
487.355	3801.51002
487.564	3757.35905
487.773	3881.38015
487.982	4009.53213
488.191	3954.9192
488.4	4026.33333
488.609	3847.75411
488.818	3927.60758
489.027	3952.81843
489.236	4076.729
489.445	4301.26277
489.654	4066.23088
489.863	4471.07362
490.072	4305.45734
490.281	4418.67812
490.49	4573.72885
490.698	4362.07564
490.907	4504.59953
491.116	4720.28636
491.325	4573.72885
491.534	4707.7286
491.743	4378.8484
491.952	4862.55061
492.16	4695.17003
492.369	4975.44996
492.578	4709.82162
492.787	5167.6421
492.996	4766.32452
493.204	4908.55471
493.413	5111.25822
493.622	5261.57748
493.831	5046.50032
494.039	5207.30947
494.248	5138.40813
494.457	5488.91339
494.665	5422.2015
494.874	5393.00747
495.083	5347.12186
495.291	5459.7299
495.5	5478.49124
495.709	5609.76725
495.917	5638.927
496.126	5674.32904
496.335	5643.0923
496.543	5747.19413
496.752	5849.15667
496.96	5894.91735
497.169	5690.98646
497.377	5951.06257
497.586	5763.84494
497.794	6038.36542
498.003	5934.42874
498.211	6042.52166
498.42	5934.42874
498.628	6223.22716
498.837	6160.935
499.045	6285.49822
499.254	5996.79781
499.462	6405.82927
499.671	6117.31792
499.879	6314.55083
500.087	6233.60713
500.296	6540.58995
500.504	6117.31792
500.713	6445.231
500.921	6465.96539
501.129	6407.90325
501.338	6418.27283
501.546	6644.18543
501.754	6426.56807
501.962	6457.67191
502.171	6528.15461
502.379	6894.64895
502.587	6729.09075
502.795	6611.04115
503.004	6729.09075
503.212	6890.51177
503.42	6733.23149
503.628	7045.59416
503.837	6820.16581
504.045	6983.57642
504.253	7041.46027
504.461	6979.44119
504.669	7231.52666
504.877	7140.64885
505.085	7208.81123
505.294	7427.59471
505.502	7359.50924
505.71	7505.9669
505.918	7324.42563
506.126	7520.40048
506.334	7142.71473
506.542	7452.34719
506.75	7363.63631
506.958	7631.70997
507.166	7563.69492
507.374	7627.58851
507.582	7563.69492
507.79	7769.73014
507.998	7433.78312
508.206	7917.94561
508.414	7707.94177
508.622	7736.77869
508.83	7734.71905
509.037	7985.84194
509.245	7487.40788
509.453	7926.17665
509.661	7924.11892
509.869	7942.63776
510.077	7740.89792
510.285	7963.21231
510.492	7837.67559
510.7	8059.88533
510.908	7973.49881
511.116	8154.45824
511.324	8197.61875
511.531	8191.4535
511.739	8127.73542
511.947	8146.2362
512.155	8000.24133
512.362	8288.02197
512.57	8181.17769
512.778	8366.06691
512.985	8201.72882
513.193	8312.67078
513.401	8409.18497
513.608	8312.67078
513.816	8394.81323
514.024	8306.50885
514.231	8400.97266
514.439	8684.12133
514.646	8630.80187
514.854	8743.57829
515.061	8474.87235
515.269	8688.22231
515.477	8548.74729
515.684	8772.27612
515.892	8647.2092
516.099	8911.61508
516.307	8792.77239
516.514	8899.32381
516.722	8764.07711
516.929	9020.16028
517.136	8706.67579
517.344	8981.25354
517.551	8854.2503
517.759	9042.68234
517.966	9132.74959
518.173	9382.30961
518.381	9376.17586
518.588	9224.8295
518.796	9310.73995
519.003	9431.37435
519.21	9104.09545
519.418	9341.41513
519.625	9398.66557
519.832	9435.46266
520.039	9351.63937
520.247	9316.87528
520.454	9482.47353
520.661	9539.69271
520.868	9255.51519
521.076	9547.86586
521.283	9333.23545
521.49	9523.34564
521.697	9549.9091
521.904	9899.07715
522.112	9774.57117
522.319	9825.60492
522.526	9572.38379
522.733	9980.69061
522.94	10021.48865
523.147	9782.7372
523.354	9827.64608
523.561	10278.3869
523.768	10098.98921
523.975	10056.16249
524.183	9911.32066
524.39	9999.05044
524.597	10052.08343
524.804	10123.45884
525.011	10188.70137
525.218	10064.32044
525.425	10141.80974
525.632	10141.80974
525.838	10168.31461
526.045	10288.57677
526.252	10331.3706
526.459	10361.93402
526.666	10251.89164
526.873	10592.08466
527.08	10561.54304
527.287	10840.38786
527.494	10504.52446
527.701	10763.06664
527.907	10610.40829
528.114	10769.17157
528.321	10681.65735
528.528	10903.45325
528.735	10907.5216
528.941	10868.87038
529.148	10842.4224
529.355	10942.10079
529.562	10872.93912
529.768	10927.8627
529.975	10767.1366
530.182	10787.48571
530.388	10716.25865
530.595	11137.31116
530.802	10976.67671
531.008	11173.90199
531.215	11228.78184
531.422	11348.67835
531.628	11360.86925
531.835	11094.61749
532.042	11224.71693
532.248	11462.44626
532.455	11371.02805
532.661	11338.519
532.868	11338.519
533.074	11255.20277
533.281	11635.07241
533.487	11649.2857
533.694	11606.64448
533.9	11667.55929
534.107	11622.88923
534.313	11846.19678
534.52	11681.77158
534.726	11805.60323
534.933	11959.84097
535.139	11689.89269
535.345	11568.06085
535.552	11872.58078
535.758	11819.81135
535.965	11896.93399
536.171	11754.85647
536.377	12324.95998
536.584	11842.13757
536.79	12101.86077
536.996	12146.48774
537.203	12118.08918
537.409	12018.68242
537.615	12116.06066
537.821	12073.45987
538.028	12061.28759
538.234	12069.40247
538.44	12176.91313
538.646	12209.36505
538.853	12541.89374
539.059	12416.20309
539.265	12408.09315
539.471	12503.37829
539.677	12363.48654
539.883	12412.14813
540.09	12726.33153
540.296	12608.7836
540.502	12714.17232
540.708	12547.97492
540.914	12825.62403
541.12	12533.78542
541.326	12892.48699
541.532	12825.62403
541.738	12882.35661
541.944	12928.95523
542.15	12999.86089
542.356	12916.79934
542.562	13064.68353
542.768	13174.06055
542.974	13105.19514
543.18	12856.01702
543.386	13532.48549
543.592	13293.54992
543.798	13595.248
544.004	13190.2634
544.21	13404.925
544.415	13153.80657
544.621	13599.29707
544.827	13459.59562
545.033	13408.97477
545.239	13362.40142
545.445	13757.20078
545.651	13500.09058
545.856	13797.68583
546.062	13510.21409
546.268	13498.06587
546.474	13491.99171
546.679	13603.34614
546.885	13141.65397
547.091	13524.38685
547.297	13172.03517
547.502	13779.4677
547.708	13481.86804
547.914	13660.03162
548.119	13878.65241
548.325	14052.71604
548.531	13595.248
548.736	14139.74117
548.942	13846.26632
549.147	13981.87845
549.353	14251.04666
549.559	14068.90708
549.764	13862.45946
549.97	14119.50313
550.175	13979.85448
550.381	14174.14534
550.586	14291.51993
550.792	14238.90453
550.997	14224.73863
551.203	14079.0264
551.408	14285.44899
551.614	14358.29928
551.819	14384.60579
552.025	14421.02976
552.23	14311.7563
552.435	14358.29928
552.641	14653.72798
552.846	14738.70975
553.052	14431.14744
553.257	15007.81042
553.462	14835.82998
553.668	14886.41283
553.873	15131.23021
554.078	14906.64587
554.283	14807.50342
554.489	14910.69247
554.694	14906.64587
554.899	14882.36622
555.105	15072.55531
555.31	14801.43342
555.515	14627.42375
555.72	15165.62581
555.925	14690.14894
556.131	15129.20694
556.336	14708.3593
556.541	15242.51012
556.746	15197.99814
556.951	14874.27298
557.156	15090.76477
557.361	15252.62649
557.567	15402.34947
557.772	15147.41637
557.977	15315.34809
558.182	15157.53273
558.387	15163.60254
558.592	15181.81197
558.797	15384.13982
559.002	15452.93202
559.207	15582.42496
559.412	15675.49983
559.617	15335.58091
559.822	15671.45306
560.027	15078.62513
560.232	15624.91544
560.437	15420.55915
560.642	15564.21485
560.847	15463.04857
561.051	15461.02526
561.256	15531.84147
561.461	15786.78752
561.666	15717.99114
561.871	15841.42081
562.076	15687.64016
562.281	15972.94901
562.485	15675.49983
562.69	15689.66355
562.895	15584.4483
563.1	15942.59586
563.305	15564.21485
563.509	16021.51467
563.714	15946.64293
563.919	16357.45208
564.123	15724.06136
564.328	15863.67906
564.533	15954.73709
564.737	15778.69376
564.942	15916.29005
565.147	15881.89046
565.351	16120.6722
565.556	16003.30245
565.761	16039.72701
565.965	16310.90368
566.17	16074.12842
566.374	16136.86153
566.579	16197.57247
566.784	16339.23737
566.988	16268.40382
567.193	16549.72828
567.397	16493.05547
567.602	16491.03147
567.806	16092.3411
568.011	16638.78901
568.215	16644.86148
568.42	16640.81316
568.624	16511.27155
568.828	16466.74366
569.033	16074.12842
569.237	16254.23738
569.442	16553.77641
569.646	16250.18984
569.85	16849.31403
570.055	16614.49929
570.259	16683.321
570.463	16869.55821
570.668	16764.29117
570.872	16561.87268
571.076	16857.41167
571.281	17078.08853
571.485	17155.02933
571.689	17084.16265
571.893	16873.60708
572.098	16770.36409
572.302	16847.28962
572.506	17132.75658
572.71	16938.39036
572.914	17248.17371
573.119	17112.50891
573.323	16630.6924
573.527	16867.53378
573.731	16982.93042
573.935	16865.50936
574.139	17193.50127
574.343	16841.21642
574.547	17428.40566
574.751	17069.98973
574.955	17414.22924
575.159	17122.63271
575.364	17383.8517
575.568	16991.02875
575.772	17314.9985
575.976	17448.65795
576.18	17286.64819
576.383	17416.25443
576.587	17458.78421
576.791	17535.7464
576.995	17675.50539
577.199	17770.71255
577.403	17720.06952
577.607	17588.40739
577.811	17683.60784
578.015	17604.61121
578.219	18100.95805
578.422	17464.86001
578.626	17799.07357
578.83	17523.59417
579.034	17669.42859
579.238	17497.26473
579.442	17466.88528
579.645	17582.33101
579.849	17809.20267
580.053	17882.1347
580.257	17965.20166
580.46	17922.65443
580.664	17983.43666
580.868	17999.6458
581.071	18267.12979
581.275	18269.15643
581.479	18036.11717
581.682	18105.01072
581.886	18163.77618
582.09	17922.65443
582.293	18204.30586
582.497	18242.81043
582.7	18441.43434
582.904	18559.00445
583.107	18563.05883
583.311	18098.93171
583.515	18372.51991
583.718	18291.44969
583.922	18573.19483
584.125	18496.16365
584.329	18577.24925
584.532	18425.21879
584.735	18518.46157
584.939	18443.4613
585.142	18611.71251
585.346	18366.43943
585.549	18619.82168
585.753	18494.13659
585.956	18492.10953
586.159	18504.27193
586.363	19104.45933
586.566	18875.29258
586.769	18810.40513
586.973	18536.70568
587.176	18972.63145
587.379	19108.51585
587.582	18968.57548
587.786	19041.58544
587.989	19177.47909
588.192	18822.57121
588.395	19175.4507
588.599	18917.8772
588.802	19309.33378
589.005	18984.79946
589.208	19074.03599
589.411	19140.96855
589.615	18919.90508
589.818	19331.64937
590.021	19268.76126
590.224	19427.00344
590.427	19151.11024
590.63	19250.50416
590.833	19266.73268
591.036	19155.16694
591.239	19355.99422
591.442	18998.99566
591.645	19739.50458
591.848	19544.68706
592.051	19392.51262
592.254	19358.02299
592.457	19830.83857
592.66	19668.47289
592.863	19763.85948
593.066	19676.59054
593.269	19475.69842
593.472	19782.12605
593.675	19656.29655
593.878	19550.77453
594.081	19623.82703
594.284	19512.22122
594.486	19581.21241
594.689	20145.49859
594.892	20082.5585
595.095	19968.87053
595.298	19944.51054
595.5	19968.87053
595.703	20454.1665
595.906	20102.86131
596.109	20350.58947
596.311	20104.89162
596.514	20188.13771
596.717	20137.37706
596.92	20462.29064
597.122	20391.20661
597.325	20163.77227
597.528	20269.36023
597.73	20616.66219
597.933	20374.95956
598.136	20600.41142
598.338	20048.04469
598.541	20509.0058
598.743	20385.11394
598.946	20563.84815
599.148	20972.21432
599.351	20551.6607
599.554	20421.67057
599.756	20643.07026
599.959	20425.7325
600.161	20354.65111
600.363	20470.41486
600.566	20271.39088
600.768	20472.44592
600.971	20773.08949
601.173	20368.86698
601.376	20584.16091
601.578	20724.33029
601.78	20791.37481
601.983	20988.47115
602.185	20681.66794
602.388	20744.64633
602.59	20821.85109
602.792	20876.71073
602.995	20992.5354
603.197	20708.07775
603.399	21049.43662
603.601	20724.33029
603.804	20819.81931
604.006	21266.91002
604.208	20764.96279
604.41	21055.53337
604.613	21086.01767
604.815	20797.46999
605.017	21051.46887
605.219	20899.06182
605.421	21122.60004
605.623	20929.54138
605.826	21514.92669
606.028	21149.02147
606.23	20884.83834
606.432	20817.78753
606.634	21222.19207
606.836	20771.05781
607.038	21214.06174
607.24	20829.97825
607.442	21083.98536
607.644	21102.27634
607.846	21370.58187
608.048	21102.27634
608.25	21222.19207
608.452	21437.66921
608.654	21579.99005
608.856	21197.80128
609.058	21045.37214
609.26	21120.56765
609.462	21612.52325
609.664	21480.36342
609.866	21362.45037
610.067	21216.09432
610.269	21146.98902
610.471	21004.72825
610.673	21415.30628
610.875	21122.60004
611.077	21457.99957
611.278	21016.92125
611.48	21543.39141
611.682	21193.73621
611.884	21403.10852
612.085	21224.22466
612.287	21541.35819
612.489	21417.33926
612.69	21305.53164
612.892	21767.06965
613.094	21626.75684
613.295	20832.01005
613.497	21309.59716
613.699	21390.91091
613.9	21722.33021
614.102	21409.20738
614.304	21508.8272
614.505	21453.93347
614.707	21840.28367
614.908	21547.45786
615.11	21689.79363
615.311	21409.20738
615.513	21779.27164
615.714	21769.1033
615.916	21937.91014
616.117	21799.60859
616.319	21433.60319
616.52	21327.89219
616.722	21411.24035
616.923	21553.55757
617.124	21785.37268
617.326	21649.1243
617.527	21380.74634
617.729	21543.39141
617.93	22045.71625
618.131	21464.09875
618.333	21431.57018
618.534	21199.83383
618.735	21701.99473
618.937	21273.00807
619.138	21614.55661
619.339	21421.40521
619.54	21482.39652
619.742	21557.62406
619.943	21571.85691
620.144	21708.09533
620.345	21927.74031
620.546	21140.89172
620.748	22013.16988
620.949	21651.15773
621.15	21783.339
621.351	21624.72346
621.552	21958.2501
621.753	21941.9781
621.954	22051.8188
622.155	21685.72662
622.356	21795.54117
622.558	21817.91219
622.759	22165.73929
622.96	21736.56528
623.161	21653.19116
623.362	21915.53663
623.563	22314.2603
623.764	21970.45426
623.965	21842.31747
624.166	21964.35216
624.366	21567.79036
624.567	21856.55414
624.768	21893.16358
624.969	21557.62406
625.17	21773.17062
625.371	21718.26308
625.572	21482.39652
625.773	21401.07558
625.973	21939.94412
626.174	21791.47376
626.375	22173.87691
626.576	22238.98007
626.777	22047.75043
626.977	21856.55414
627.178	22251.18733
627.379	21939.94412
627.58	22096.57187
627.78	21996.89707
627.981	22045.71625
628.182	22143.36112
628.382	22214.56594
628.583	22084.36631
628.784	22340.71131
628.984	21714.19597
629.185	22222.70392
629.386	21769.1033
629.586	22243.04914
629.787	21909.43484
629.987	22300.01771
630.188	22155.56734
630.388	22371.23247
630.589	21950.11407
630.79	21917.57057
630.99	22000.96525
631.191	22153.53296
631.391	22220.66942
631.591	21852.4865
631.792	21553.55757
631.992	22438.3819
632.193	22204.39354
632.393	22253.22189
632.594	22072.16088
632.794	21840.28367
632.994	21826.04722
633.195	22241.0146
633.395	22127.08637
633.595	22230.84196
633.796	22002.99935
633.996	22491.29028
634.196	22409.89378
634.397	22829.14641
634.597	22517.74538
634.797	22466.87072
634.997	22086.40056
635.198	22485.18534
635.398	22147.42984
635.598	22452.62622
635.798	22505.53526
635.998	22505.53526
636.199	22265.4293
636.399	22790.47126
636.599	22344.78075
636.799	22625.60702
636.999	22558.44671
637.199	22853.57346
637.399	22818.96861
637.599	22735.51397
637.799	22450.59131
637.999	23252.617
638.199	22753.83279
638.399	22847.46665
638.599	22709.05396
638.799	22945.17926
638.999	22562.51693
639.199	22926.85755
639.399	22719.23082
639.599	22904.46472
639.799	22432.27724
639.999	23040.86372
640.199	22892.25062
640.399	23059.18712
640.599	22206.42801
640.799	23303.52447
640.998	22780.29379
641.198	22611.36057
641.398	22407.85894
641.598	22971.64444
641.798	23138.59161
641.997	22888.17928
642.197	22873.92971
642.397	22967.57283
642.597	22835.25312
642.796	22939.07199
642.996	22770.11641
643.196	23059.18712
643.395	22975.71605
643.595	23277.05233
643.795	23073.43884
643.994	23246.50824
644.194	22572.69252
644.394	23179.31379
644.593	23022.5406
644.793	23022.5406
644.992	22947.21502
645.192	23362.57962
645.392	22896.32198
645.591	23395.16291
645.791	23321.85164
645.99	23376.83471
646.19	23523.46742
646.389	23397.1994
646.589	23160.98865
646.788	23340.17907
646.987	22851.53785
647.187	23564.20157
647.386	22880.03665
647.586	23338.14268
647.785	23154.88032
647.984	23293.34281
648.184	23242.43575
648.383	23022.5406
648.582	22875.96535
648.782	23183.38608
648.981	23018.46883
649.18	23036.79189
649.38	23061.22307
649.579	23855.48588
649.778	23462.3685
649.977	23684.37442
650.177	23250.58075
650.376	23735.29827
650.575	23226.14592
650.774	23517.3574
650.973	23362.57962
651.173	23207.8201
651.372	23266.87089
651.571	23419.60091
651.77	23317.77891
651.969	23482.73449
652.168	23230.21835
652.367	23370.72537
652.566	23505.13745
652.765	23470.51486
652.964	23411.45486
653.163	23684.37442
653.362	23551.9812
653.561	23633.45244
653.76	23496.99088
653.959	23523.46742
654.158	23690.48518
654.357	23712.89155
654.556	23676.22678
654.755	23753.63131
654.954	23515.32073
655.153	23244.47199
655.352	23808.63187
655.551	23272.97975
655.749	23287.23386
655.948	23407.38186
656.147	23932.9002
656.346	23763.81644
656.545	23859.56021
656.743	23839.18866
656.942	23625.3051
657.141	23739.37226
657.34	23659.93163
657.538	23853.44871
657.737	23444.03936
657.936	24075.5163
658.135	23812.70607
658.333	23841.2258
658.532	23849.3744
658.731	23800.4835
658.929	23521.43074
659.128	23896.22974
659.326	23776.03869
659.525	23712.89155
659.724	23364.61605
659.922	23611.04736
660.121	23069.3669
660.319	23452.18561
660.518	23152.84422
660.716	23378.87117
660.915	23541.79764
661.113	23745.48326
661.312	23032.72008
661.51	23604.93695
661.709	23792.33518
661.907	24067.36644
662.105	23600.86336
662.304	23867.70891
662.502	23619.19462
662.701	23818.81739
662.899	23505.13745
663.097	23698.63291
663.296	23346.28828
663.494	23912.52761
663.692	23209.85629
663.891	23794.37226
664.089	23826.96586
664.287	23721.0394
664.485	23922.71387
664.684	24167.2053
664.882	23757.70535
665.08	24097.92865
665.278	23774.00164
665.476	23688.44826
665.675	23776.03869
665.873	24099.96615
666.071	23729.18731
666.269	23928.82566
666.467	24097.92865
666.665	23955.31038
666.863	23684.37442
667.061	23833.07725
667.259	23782.14985
667.457	23973.64625
667.655	23413.49137
667.853	23452.18561
668.051	23399.23588
668.249	24144.79192
668.447	23806.59477
668.645	23666.04229
668.843	23877.89486
669.041	23761.77941
669.239	23635.48928
669.437	23576.42206
669.635	23847.33724
669.833	24024.58039
670.031	23549.94448
670.229	23922.71387
670.426	23706.78068
670.624	24002.16915
670.822	23979.75825
671.02	24287.42813
671.218	23936.97475
671.415	23625.3051
671.613	23329.99714
671.811	23053.07929
672.009	23309.6335
672.206	23694.55904
672.404	23696.59597
672.602	23287.23386
672.799	23625.3051
672.997	23861.59738
673.195	23749.55728
673.392	24026.6178
673.59	23582.53234
673.788	23562.16484
673.985	23466.44167
674.183	23725.11335
674.38	23356.47034
674.578	23621.23144
674.775	23215.96487
674.973	23275.01604
675.17	23517.3574
675.368	23511.24741
675.565	23458.29533
675.763	23222.07349
675.96	23501.06416
676.158	23429.78355
676.355	23674.18987
676.553	24144.79192
676.75	23315.74255
676.947	23323.88801
677.145	23796.40934
677.342	23317.77891
677.539	23283.16124
677.737	23745.48326
677.934	23156.91643
678.131	23211.89248
678.329	22932.96476
678.526	23175.24152
678.723	23193.56687
678.92	23281.12493
679.118	23554.01792
679.315	23061.22307
679.512	23266.87089
679.709	23592.71621
679.906	23295.37914
680.104	23704.74374
680.301	23700.66985
680.498	23140.62769
680.695	22890.21495
680.892	23346.28828
681.089	23407.38186
681.286	23619.19462
681.483	23203.74773
681.68	23354.43392
681.877	23594.75299
682.075	23444.03936
682.272	23028.64827
682.469	23472.55146
682.665	23087.69072
682.862	22871.89407
683.059	22967.57283
683.256	22837.2887
683.453	22963.50124
683.65	23061.22307
683.847	22935.0005
684.044	22884.10796
684.241	22880.03665
684.438	22941.10775
684.635	22629.67747
684.831	22782.32928
685.028	22629.67747
685.225	22794.54227
685.422	22460.76592
685.619	22884.10796
685.815	22658.17098
686.012	22751.79735
686.209	22629.67747
686.405	22912.60752
686.602	22678.52391
686.799	22837.2887
686.996	22633.74793
687.192	22833.21755
687.389	22682.59454
687.586	22764.01003
687.782	22937.03624
687.979	22792.50676
688.175	22348.85021
688.372	22609.32538
688.568	22601.18465
688.765	22810.82644
688.962	22529.95563
689.158	22422.10289
689.355	22369.1977
689.551	22617.46617
689.748	22403.78927
689.944	22489.2553
690.14	22477.04548
690.337	22487.22032
690.533	22790.47126
690.73	22434.31212
690.926	22723.30159
691.123	22531.99068
691.319	22458.73099
691.515	22743.65563
691.712	22208.46249
691.908	22106.74328
692.104	21956.21609
692.301	22157.60172
692.497	22261.36015
692.693	22196.25569
692.889	21960.28412
693.086	22340.71131
693.282	22167.77369
693.478	22566.58715
693.674	22373.26724
693.87	22729.40776
694.067	22375.30202
694.263	22611.36057
694.459	22373.26724
694.655	22096.57187
694.851	22000.96525
695.047	21962.31814
695.243	21935.87617
695.439	21815.87844
695.635	21897.23137
695.831	21807.74349
696.027	21669.45877
696.224	22322.39901
696.42	22029.44295
696.615	22230.84196
696.811	21708.09533
697.007	22029.44295
697.203	21821.9797
697.399	21746.73331
697.595	21480.36342
697.791	21543.39141
697.987	21545.42463
698.183	21836.2161
698.379	22057.92138
698.575	22393.61517
698.77	21730.46451
698.966	21771.13696
699.162	21399.04263
699.358	21612.52325
699.554	21110.40577
699.749	21673.52571
699.945	21622.69008
700.141	21645.05746
700.337	21464.09875
700.532	21620.65671
700.728	21685.72662
700.924	21783.339
701.119	21474.26414
701.315	21695.89416
701.511	21691.82713
701.706	21649.1243
701.902	21439.70223
702.097	21712.16242
702.293	21628.79023
702.489	22118.94909
702.684	21616.58997
702.88	21645.05746
703.075	21537.29176
703.271	21547.45786
703.466	21624.72346
703.662	21862.65563
703.857	22070.12665
704.053	21535.25855
704.248	21616.58997
704.443	21604.38986
704.639	21439.70223
704.834	21632.85701
705.03	21476.29723
705.225	21602.35652
705.42	21592.18988
705.616	21677.59266
705.811	21075.85614
706.006	21220.15948
706.202	21409.20738
706.397	21090.08231
706.592	20923.44539
706.787	21214.06174
706.983	21360.4175
707.178	21480.36342
707.373	21205.93148
707.568	21409.20738
707.763	21295.36792
707.959	21687.76012
708.154	21246.58344
708.349	21437.66921
708.544	21214.06174
708.739	20992.5354
708.934	21128.69723
709.129	21029.11439
709.324	20911.25353
709.519	21059.59789
709.714	20838.10548
709.909	21207.96404
710.104	20929.54138
710.299	20803.56521
710.494	21327.89219
710.689	21228.28986
710.884	21100.24399
711.079	21153.08636
711.274	20850.29645
711.469	21425.47119
711.664	20604.47408
711.859	21000.66395
712.054	21169.34611
712.249	20567.91067
712.443	20476.50807
712.638	21053.50112
712.833	20376.99042
713.028	21110.40577
713.223	20736.51987
713.417	20966.11807
713.612	21181.54108
713.807	21411.24035
714.002	20882.80643
714.196	20742.61471
714.391	20750.74123
714.586	20667.44757
714.78	21004.72825
714.975	21020.98561
715.17	20704.01466
715.364	21177.47608
715.559	20897.02988
715.754	20872.64695
715.948	20592.28613
716.143	20943.76549
716.337	20911.25353
716.532	21439.70223
716.726	21081.95305
716.921	21079.92074
717.115	20949.8616
717.31	20856.39199
717.504	20927.50938
717.699	21055.53337
717.893	20454.1665
718.088	20685.73095
718.282	20655.25884
718.476	20750.74123
718.671	20527.28625
718.865	20762.93113
719.059	20667.44757
719.254	20547.59825
719.448	20541.50461
719.642	20244.99277
719.837	19719.20929
720.031	20506.97466
720.225	20110.98255
720.419	20494.78791
720.614	19956.69046
720.808	20180.01583
721.002	19721.2388
721.196	19983.0808
721.39	20151.58978
721.585	20240.93159
721.779	19995.2612
721.973	20249.05397
722.167	19767.91869
722.361	19924.211
722.555	20242.96218
722.749	19776.03716
722.943	19875.49384
723.137	19516.27939
723.331	19672.53171
723.525	19514.2503
723.719	19431.06127
723.913	19877.52368
724.107	19790.24464
724.301	20025.71286
724.495	19962.78047
724.689	19808.5117
724.883	19676.59054
725.077	19672.53171
725.271	19897.82224
725.465	19731.38641
725.659	19636.00297
725.853	19847.07662
726.046	19554.83286
726.24	19682.67882
726.434	19402.65685
726.628	19869.40437
726.822	19670.5023
727.015	20029.77316
727.209	19534.54137
727.403	19599.4756
727.596	19642.091
727.79	19532.51225
727.984	19378.31086
728.177	19916.09131
728.371	19656.29655
728.565	19591.35858
728.758	19437.14803
728.952	19776.03716
729.146	19636.00297
729.339	19745.59325
729.533	19774.00753
729.726	19372.22446
729.92	19449.32168
730.113	19449.32168
730.307	19232.24739
730.5	19362.08053
730.694	19636.00297
730.887	19621.79772
731.081	19851.13617
731.274	19916.09131
731.468	19544.68706
731.661	19427.00344
731.854	19297.16185
732.048	19680.64939
732.241	19518.30848
732.435	19727.32735
732.628	19573.09555
732.821	19025.36055
733.014	19276.87563
733.208	19293.10457
733.401	19343.82172
733.594	19102.43108
733.788	19072.0078
733.981	18812.4328
734.174	19193.70643
734.367	19159.22366
734.56	18915.84932
734.754	18828.65431
734.947	19252.53271
735.14	19560.92038
735.333	19479.75644
735.526	19404.68571
735.719	19459.46649
735.912	19491.93061
736.105	19483.81448
736.298	19256.58982
736.491	19508.16306
736.684	19049.69798
736.877	19051.72613
737.07	19370.19566
737.263	18964.51953
737.456	19343.82172
737.649	19469.61141
737.842	19240.36147
738.035	19224.13338
738.228	19329.62066
738.421	19230.21889
738.614	18911.79357
738.807	18936.12829
739	18940.18413
739.192	19094.31812
739.385	19102.43108
739.578	19382.36848
739.771	19037.52919
739.964	19009.13592
740.156	18554.9501
740.349	18601.57614
740.542	18814.46047
740.735	18786.07338
740.927	18698.88931
741.12	18070.56343
741.313	18832.70973
741.505	18788.10101
741.698	18534.67854
741.891	18794.1839
742.083	19025.36055
742.276	19088.23344
742.468	19289.04731
742.661	19029.41675
742.854	19120.68549
743.046	19015.22013
743.239	19047.66984
743.431	19287.01869
743.624	18723.21902
743.816	19108.51585
744.009	18646.17689
744.201	18646.17689
744.393	18449.54221
744.586	18581.3037
744.778	18715.10905
744.971	18542.78712
745.163	18281.31633
745.355	18469.81215
745.548	18419.13802
745.74	18439.40739
745.932	18356.30538
746.125	18465.75813
746.317	18526.57003
746.509	18048.27456
746.702	18334.01081
746.894	18504.27193
747.086	18242.81043
747.278	18413.05728
747.471	18439.40739
747.663	18638.06752
747.855	18524.54291
748.047	18275.23637
748.239	18228.62438
748.431	18329.9573
748.623	17999.6458
748.815	18259.02328
749.008	18723.21902
749.2	18299.55644
749.392	18285.36967
749.584	18194.1733
749.776	18447.51524
749.968	18400.89591
750.16	18398.86903
750.352	18267.12979
750.544	18295.50306
750.736	18194.1733
750.928	18348.19821
751.12	18015.85516
751.311	17934.81063
751.503	18303.60984
751.695	18536.70568
751.887	18534.67854
752.079	18415.08419
752.271	18003.69811
752.463	17910.49837
752.654	17898.34243
752.846	18155.67041
753.038	18040.16962
753.23	17829.46112
753.421	17981.41054
753.613	17849.71991
753.805	18052.32705
753.997	17900.36841
754.188	18068.53715
754.38	17590.43285
754.572	18169.85554
754.763	18129.32709
754.955	17610.6877
755.146	17930.75855
755.338	17726.14657
755.53	17805.15102
755.721	17385.87685
755.913	17643.09612
756.104	17647.14723
756.296	17724.12089
756.487	17353.47486
756.679	17582.33101
756.87	17685.63346
757.062	17957.09731
757.253	17817.306
757.445	17651.19836
757.636	17657.27507
757.827	17600.56023
758.019	17456.75895
758.21	17272.47326
758.401	16999.12712
758.593	17025.44713
758.784	17100.36045
758.975	17082.13794
759.167	17215.77497
759.358	17513.4674
759.549	17126.68225
759.74	17130.7318
759.932	17396.00263
760.123	17003.17632
760.314	17003.17632
760.505	17102.38519
760.696	16869.55821
760.888	17116.55842
761.079	16861.46051
761.27	16865.50936
761.461	16707.61166
761.652	16922.19429
761.843	16737.97545
762.034	16806.80206
762.225	17219.82477
762.416	17179.32728
762.607	16798.70466
762.798	16818.94822
762.989	16912.07183
763.18	16822.99696
763.371	16853.36284
763.562	16976.8567
763.753	16553.77641
763.944	16604.37867
764.135	16511.27155
764.326	16675.22419
764.517	16735.95118
764.708	16970.783
764.899	16667.12742
765.089	16709.63589
765.28	16632.71655
765.471	16806.80206
765.662	16282.57035
765.853	16501.15149
766.043	16406.0254
766.234	16493.05547
766.425	16061.9867
766.615	16337.21352
766.806	16371.61918
766.997	16323.04664
767.187	16250.18984
767.378	16434.36036
767.569	16225.90475
767.759	16179.35903
767.95	16306.85604
768.141	16351.38049
768.331	16074.12842
768.522	16323.04664
768.712	15958.78417
768.903	15987.11391
769.093	15746.31892
769.284	15750.36576
769.474	15566.23819
769.665	15378.06995
769.855	15904.14898
770.046	15938.5488
770.236	16064.01031
770.426	16120.6722
770.617	16007.3496
770.807	15554.09815
770.998	15709.89752
771.188	15578.37826
771.378	15865.70254
771.569	16233.99975
771.759	15807.02197
771.949	15705.85072
772.139	15651.21926
772.33	15537.91146
772.52	15564.21485
772.71	15669.42967
772.9	15554.09815
773.09	15564.21485
773.281	15501.49157
773.471	15651.21926
773.661	15717.99114
773.851	15574.33157
774.041	15467.09519
774.231	15570.28488
774.421	15588.495
774.611	15412.46596
774.802	15485.30502
774.992	15278.92907
775.182	15313.32481
775.372	15228.34722
775.562	14829.76002
775.752	15007.81042
775.942	14744.77981
776.131	14605.16619
776.321	14584.93193
776.511	14704.31256
776.701	14959.25156
776.891	14898.55266
777.081	14633.49398
777.271	14805.48009
777.461	14588.97879
777.651	14578.86163
777.84	14572.79131
778.03	14348.18132
778.22	14459.47675
778.41	14659.79816
778.599	14548.50996
778.789	14516.13454
778.979	14872.24967
779.169	14649.68119
779.358	14694.19569
779.548	14556.60376
779.738	14572.79131
779.927	14419.00622
780.117	14210.57264
780.307	14044.62046
780.496	14329.96888
780.686	14344.13412
780.875	14309.73267
781.065	14538.39267
781.254	14538.39267
781.444	14354.2521
781.633	14435.1945
781.823	14196.40654
782.012	14327.94526
782.202	14354.2521
782.391	13838.16969
782.581	13963.66258
782.77	14052.71604
782.96	14149.8601
783.149	13579.05154
783.338	14050.69215
783.528	14192.35907
783.717	13994.02225
783.906	14141.76496
784.096	13939.37444
784.285	13874.60419
784.474	13741.00642
784.663	13720.7632
784.853	13643.83604
785.042	13704.56839
785.231	13716.71452
785.42	13728.86053
785.61	13431.24824
785.799	13459.59562
785.988	13692.42216
786.177	13564.87946
786.366	13595.248
786.555	13566.90406
786.744	13898.89335
786.933	13591.1989
787.122	13755.1765
787.312	13603.34614
787.501	13603.34614
787.69	13522.36218
787.879	13724.81187
788.068	13400.87521
788.257	13190.2634
788.445	13186.21272
788.634	13836.14552
788.823	13502.11529
789.012	13449.47164
789.201	13180.13665
789.39	13453.52125
789.579	12973.52524
789.768	13311.77578
789.957	13101.14406
790.145	12995.80931
790.334	12993.78351
790.523	12793.20348
790.712	13054.55532
790.9	12882.35661
791.089	12736.46404
791.278	13147.73029
791.467	13198.36472
791.655	13064.68353
791.844	13182.16201
792.033	13265.19788
792.221	13208.49127
792.41	12888.43485
792.599	12736.46404
792.787	12781.0454
792.976	12732.41106
793.164	13036.32425
793.353	12866.14774
793.541	13001.88668
793.73	12558.11009
793.918	13151.78115
794.107	12691.8799
794.295	12977.57693
794.484	12645.26614
794.672	12760.78149
794.861	12556.08307
795.049	12681.74674
795.238	12533.78542
795.426	12410.12065
795.614	12249.92732
795.803	12272.23534
795.991	12367.54182
796.179	12470.94242
796.368	12489.1878
796.556	12493.24226
796.744	12280.34713
796.932	12412.14813
797.121	12274.2633
797.309	12371.59707
797.497	12347.26513
797.685	12641.21262
797.874	12399.9831
798.062	12231.67466
798.25	12272.23534
798.438	12375.6523
798.626	12191.11108
798.814	12164.74318
799.002	12140.40246
799.19	12166.77152
799.378	12140.40246
799.566	12284.40299
799.755	11963.89922
799.943	12373.62469
800.131	12349.29283
800.318	12438.50488
800.506	12371.59707
800.694	12243.84316
800.882	12091.71776
801.07	12193.13933
801.258	12128.23169
801.446	12264.12343
801.634	11935.49081
801.822	12247.89927
802.01	11949.69521
802.197	12207.33686
802.385	11921.28601
802.573	11982.16093
802.761	11641.16387
802.949	12201.25225
803.136	11900.99274
803.324	12276.29125
803.512	11561.96839
803.699	11888.81638
803.887	11941.57846
804.075	11949.69521
804.262	11811.69247
804.45	12030.85568
804.638	11799.5139
804.825	12097.80359
805.013	12142.43089
805.201	12300.62612
805.388	12389.84539
805.576	12349.29283
805.763	12233.70276
805.951	12166.77152
806.138	12180.96972
806.326	12229.64655
806.513	12018.68242
806.701	11941.57846
806.888	11795.45431
807.075	12235.73085
807.263	11937.52003
807.45	12071.43117
807.638	11809.66273
807.825	12081.57456
808.012	11870.55129
808.2	12197.1958
808.387	11972.01561
808.574	11834.01907
808.761	12012.59568
808.949	12404.03814
809.136	11982.16093
809.323	12014.6246
809.51	12185.02629
809.698	12034.91337
809.885	11988.24802
810.072	12116.06066
810.259	11775.15582
810.446	11750.7965
810.633	12006.50887
810.82	11990.27704
811.008	11898.96337
811.195	12148.51615
811.382	11829.95976
811.569	11961.8701
811.756	11898.96337
811.943	12030.85568
812.13	11953.75354
812.317	12333.07104
812.504	12160.68646
812.691	12489.1878
812.878	12258.03943
813.064	12310.76535
813.251	12095.77499
813.438	12053.17259
813.625	11990.27704
813.812	12134.31711
813.999	11982.16093
814.186	12262.09544
814.372	12176.91313
814.559	12422.28548
814.746	12182.99801
814.933	12452.69651
815.12	12189.08282
815.306	12093.74638
815.493	12162.71482
815.68	12112.00358
815.866	11758.91641
816.053	12051.14381
816.24	12124.17471
816.426	12221.53404
816.613	12213.42141
816.799	12116.06066
816.986	11687.86242
817.173	11888.81638
817.359	11844.16718
817.546	12318.87661
817.732	12120.1177
817.919	12296.57038
818.105	12028.82682
818.292	12020.71131
818.478	11838.07834
818.665	11864.46277
818.851	11909.11015
819.037	11886.78696
819.224	11917.22742
819.41	11935.49081
819.597	11965.92833
819.783	12002.45096
819.969	11740.64641
820.156	11631.01138
820.342	11669.58964
820.528	11890.8458
820.714	11600.55255
820.901	11600.55255
821.087	11576.18399
821.273	11669.58964
821.459	11669.58964
821.646	11639.13339
821.832	11513.22569
822.018	11706.13448
822.204	11673.65032
822.39	11801.54368
822.576	11834.01907
822.762	11563.99922
822.948	11568.06085
823.134	11805.60323
823.32	11645.22481
823.507	11817.78165
823.693	11531.50484
823.879	11265.3642
824.065	11291.78273
824.25	11409.62927
824.436	11490.88348
824.622	11523.38087
824.808	11306.00738
824.994	11299.91116
825.18	11112.91536
825.366	11486.82113
825.552	11104.78308
825.738	11505.10138
825.923	11383.21829
826.109	11322.26351
826.295	11131.21236
826.481	11352.74202
826.667	11265.3642
826.852	11216.58698
827.038	11175.93472
827.224	11308.03943
827.409	11387.28163
827.595	11149.50849
827.781	11005.14857
827.966	10950.23659
828.152	10803.76414
828.338	10974.64292
828.523	10820.04182
828.709	10994.9803
828.894	11064.1191
829.08	11035.65172
829.266	10895.3164
829.451	10938.03282
829.637	10879.04215
829.822	11035.65172
830.008	10836.31875
830.193	10915.65818
830.378	10418.97783
830.564	11011.2494
830.749	10763.06664
830.935	10933.96481
831.12	10486.19494
831.305	10756.96161
831.491	10425.08905
831.676	10496.37813
831.861	10712.18809
832.047	10634.83823
832.232	10740.681
832.417	10618.5518
832.602	10498.41473
832.788	10606.33646
832.973	10290.61471
833.158	10425.08905
833.343	10357.85907
833.528	10496.37813
833.714	10280.4249
833.899	10695.90536
834.084	10001.09035
834.269	10473.97469
834.454	10058.202
834.639	10200.93277
834.824	10096.94999
835.009	10449.5328
835.194	10347.67146
835.379	10172.39207
835.564	9617.32744
835.749	10025.56814
835.934	9915.40171
836.119	9772.52963
836.304	9576.46989
836.489	9762.32167
836.674	9639.79643
836.859	9833.76946
837.044	9652.05145
837.228	10366.00892
837.413	9958.24923
837.598	10117.34162
837.783	9778.65422
837.968	9835.81055
838.152	9582.59892
838.337	9890.91451
838.522	9556.03875
838.707	9915.40171
838.891	9854.17974
839.076	9921.52318
839.261	9596.89945
839.445	9952.12855
839.63	9543.77931
839.815	9784.77868
839.999	9376.17586
840.184	9760.28003
840.368	9267.78841
840.553	9650.00898
840.737	9654.0939
840.922	9752.11334
841.106	9709.23418
841.291	9694.93963
841.475	9390.48772
841.66	9500.86677
841.844	9490.64846
842.029	9609.15643
842.213	9282.10641
842.397	9359.81846
842.582	8901.3724
842.766	9259.60633
842.951	9376.17586
843.135	9380.26504
843.319	9138.88933
843.504	9318.92036
843.688	9192.09392
843.872	8913.66356
844.056	9016.06513
844.241	9194.14002
844.425	8889.08059
844.609	9255.51519
844.793	9065.20229
844.977	9233.01272
845.161	8968.96589
845.346	9057.01346
845.53	9102.0486
845.714	8983.30143
845.898	8616.44449
846.082	9116.37621
846.266	8983.30143
846.45	8909.56658
846.634	8872.69051
846.818	9067.24946
847.002	8989.44496
847.186	9249.37836
847.37	8608.23985
847.554	8868.59281
847.738	8517.96906
847.922	8889.08059
848.106	8573.36682
848.29	8495.39564
848.473	8511.8129
848.657	8485.13423
848.841	8357.85297
849.025	8655.41241
849.209	8273.64219
849.392	8589.77834
849.576	8312.67078
849.76	8616.44449
849.944	8528.22894
850.127	8688.22231
850.311	8269.53351
850.495	8624.64882
850.678	8343.47785
850.862	8466.6625
851.046	8423.55576
851.229	8626.69986
851.413	8244.87975
851.596	8591.82969
851.78	8403.02577
851.964	8384.54712
852.147	8063.99808
852.331	8524.12504
852.514	8187.34324
852.698	8267.47914
852.881	8041.37695
853.065	8240.77051
853.248	8127.73542
853.431	8253.09798
853.615	7940.5802
853.798	7944.69531
853.982	7763.55215
854.165	8035.20712
854.348	7907.65633
854.532	7878.84363
854.715	7911.7721
854.898	8031.09381
855.081	7880.90181
855.265	8111.28893
855.448	7981.72764
855.631	7987.89906
855.814	7829.44098
855.997	7942.63776
856.181	7611.1018
856.364	7837.67559
856.547	7903.54048
856.73	7837.67559
856.913	7340.93635
857.096	7660.55785
857.279	7609.04087
857.462	7687.34144
857.645	7637.89201
857.828	7541.01806
858.011	7590.4915
858.194	7611.1018
858.377	7468.84712
858.56	7903.54048
858.743	7650.25551
858.926	7637.89201
859.109	7450.28461
859.292	7326.48955
859.475	7429.65753
859.658	7353.31847
859.841	6979.44119
860.023	7117.92268
860.206	7396.64971
860.389	7343.00009
860.572	6917.40182
860.755	7243.91576
860.937	7057.99528
861.12	7186.09312
861.303	7235.65645
861.486	7450.28461
861.668	7095.19381
861.851	7186.09312
862.034	6921.53841
862.216	7078.66203
862.399	6770.49399
862.581	7006.31861
862.764	6635.89991
862.947	6816.027
863.129	6807.74909
863.312	6646.25675
863.494	6712.52689
863.677	6884.30583
863.859	6764.28409
864.042	6876.03093
864.224	6735.30182
864.406	6768.42405
864.589	6577.89097
864.771	6878.09969
864.954	6461.8187
865.136	6718.73851
865.318	6513.64566
865.501	6449.37806
865.683	6391.31072
865.865	6577.89097
866.048	6441.08385
866.23	6524.00931
866.412	6285.49822
866.594	6441.08385
866.777	6331.15027
866.959	6219.075
867.141	6258.51668
867.323	6329.07543
867.505	6104.854
867.687	6430.71555
867.869	6517.79119
868.052	6453.52503
868.234	6179.62487
868.416	6146.39713
868.598	6163.01175
868.78	6302.10027
868.962	6142.24324
869.144	6594.4668
869.326	6366.41912
869.508	6463.89205
869.69	6216.99889
869.872	6372.64233
870.054	6192.08372
870.236	6185.8544
870.417	6084.0789
870.599	6341.52416
870.781	6256.44101
870.963	6171.3185
871.145	6453.52503
871.327	6451.45156
871.508	6273.04569
871.69	6065.37931
871.872	6104.854
872.054	6221.15109
872.235	5872.03844
872.417	6179.62487
872.599	5948.98342
872.78	6096.54424
872.962	6003.03356
873.144	6212.8466
873.325	6027.9744
873.507	6187.93086
873.689	5834.59406
873.87	6096.54424
874.052	5838.75493
874.233	6123.54957
874.415	5894.91735
874.596	6231.53118
874.778	5672.24675
874.959	5678.49354
875.141	5869.95839
875.322	5965.61593
875.503	5780.49425
875.685	6005.11209
875.866	5701.39659
876.048	6071.61272
876.229	5718.05156
876.41	5842.9157
876.592	5884.5182
876.773	6102.77659
876.954	5842.9157
877.136	6115.24066
877.317	5822.11091
877.498	6065.37931
877.679	5817.94967
877.86	5805.46538
878.042	5801.30376
878.223	5849.15667
878.404	5609.76725
878.585	6059.14569
878.766	6069.53494
878.947	6204.54173
879.128	5915.71388
879.309	6106.93138
879.49	5792.98024
879.672	6295.87468
879.853	5768.00741
880.034	6279.27206
880.215	6023.81783
880.396	6034.20908
880.576	5618.09908
880.757	5909.47516
880.938	5882.43829
881.119	6106.93138
881.3	6021.73951
881.481	6300.0251
881.662	6050.83386
881.843	5880.35837
882.023	5896.9971
882.204	5980.16813
882.385	6013.42599
882.566	5901.15655
882.747	5957.29986
882.927	6246.06233
883.108	6036.28726
883.289	5940.6666
883.469	5940.6666
883.65	6106.93138
883.831	5907.39555
884.011	6146.39713
884.192	6054.98982
884.373	6100.69917
884.553	5982.24693
884.734	6353.97206
884.914	5901.15655
885.095	6266.81911
885.275	5921.95238
885.456	6335.2999
885.636	6146.39713
885.817	6111.08606
885.997	5894.91735
886.178	6181.7014
886.358	6187.93086
886.538	6023.81783
886.719	5876.19845
886.899	6050.83386
887.08	5872.03844
887.26	6223.22716
887.44	5822.11091
887.621	6096.54424
887.801	5959.37891
887.981	6424.49429
888.161	6194.16011
888.342	6023.81783
888.522	6013.42599
888.702	6175.47173
888.882	5915.71388
889.062	6034.20908
889.242	5973.93162
889.423	5932.3494
889.603	5965.61593
889.783	6187.93086
889.963	5799.22291
890.143	5894.91735
890.323	5813.78833
890.503	6198.31283
890.683	5917.7934
890.863	5946.90425
891.043	5790.8993
891.223	6121.47238
891.403	5830.43311
891.583	6038.36542
891.763	5915.71388
891.943	6129.781
892.122	6169.24184
892.302	6061.22358
892.482	6005.11209
892.662	5932.3494
892.842	5853.31721
893.022	6219.075
893.201	5909.47516
893.381	6102.77659
893.561	5909.47516
893.741	6158.85823
893.92	5934.42874
894.1	5884.5182
894.28	5759.68238
894.459	5882.43829
894.639	5597.26881
894.819	5420.11636
894.998	5591.01926
895.178	5880.35837
895.357	5849.15667
895.537	5909.47516
895.716	5647.2575
895.896	5847.07637
896.075	5420.11636
896.255	5482.66017
896.434	5430.5418
896.614	5470.1531
896.793	5428.45676
896.973	5643.0923
897.152	5240.70704
897.331	5559.76837
897.511	5405.51976
897.69	5468.06851
897.87	5313.74337
898.049	5407.60506
898.228	5098.72617
898.407	5338.7778
898.587	5063.21417
898.766	5397.17833
898.945	5203.13435
899.124	5269.92501
899.304	5382.57992
899.483	5226.09634
899.662	5079.92653
899.841	5340.86385
900.02	5194.78384
900.199	5345.03588
900.378	5023.51636
900.557	5253.22959
900.737	4954.54772
900.916	5173.90592
901.095	4987.9902
901.274	5175.99382
901.453	4956.63805
901.632	5015.15786
901.811	4778.87848
901.989	4829.08613
902.168	4510.88501
902.347	4747.49205
902.526	4427.06232
902.705	4737.02878
902.884	4803.98394
903.063	4826.9944
903.242	4500.4091
903.42	4862.55061
903.599	4496.21859
903.778	4573.72885
903.957	4284.48362
904.135	4418.67812
904.314	4416.58201
904.493	4613.5196
904.672	4280.28861
904.85	4399.81239
905.029	4104.02167
905.207	4173.28719
905.386	4007.43189
905.565	3978.02635
905.743	3936.01152
905.922	3925.50654
906.1	3854.05938
906.279	4154.39886
906.457	3978.02635
906.636	4179.58292
906.814	3870.87256
906.993	3807.81659
907.171	3626.95884
907.35	3660.61754
907.528	3485.96112
907.707	3683.75508
907.885	3368.04971
908.063	3700.58092
908.242	3277.47328
908.42	3498.59115
908.598	3317.49935
908.777	3443.85633
908.955	3412.27303
909.133	3534.37266
909.311	3285.90033
909.49	3532.26801
909.668	3210.04717
909.846	3542.79107
910.024	3237.44109
910.202	3540.6865
910.38	3393.32113
910.559	3807.81659
910.737	3650.09972
910.915	3936.01152
911.093	3744.74291
911.271	3967.52341
911.449	3597.50352
911.627	3698.47776
911.805	3498.59115
911.983	3774.17948
912.161	3559.62701
912.339	3700.58092
912.517	3530.16335
912.695	3536.47729
912.872	3534.37266
913.05	3738.43458
913.228	3460.69911
913.406	3511.22052
913.584	3504.90592
913.762	3675.3417
913.939	3496.48619
914.117	3711.09645
914.295	3393.32113
914.473	3694.27138
914.65	3427.0124
914.828	3397.53278
915.006	3254.29749
915.184	3372.26179
915.361	3151.03541
915.539	3334.35058
915.716	2997.12446
915.894	3403.85014
916.072	3264.8322
916.249	3283.7936
916.427	3269.04596
916.604	3387.00351
916.782	3258.51142
916.959	3551.20919
917.137	3115.20064
917.314	3338.56321
917.492	3376.4738
917.669	3593.29532
917.847	3473.33044
918.024	3536.47729
918.201	3243.76237
918.379	3528.05866
918.556	2921.19311
918.733	3254.29749
918.911	3068.8194
919.088	3384.8976
919.265	2969.70704
919.442	3089.90273
919.62	2762.94277
919.797	3016.10426
919.974	2689.06633
920.151	2948.61498
920.328	2786.15771
920.506	2887.43971
920.683	2822.0321
920.86	3032.97415
921.037	2798.81971
921.214	2929.63087
921.391	2900.09767
921.568	3043.51734
921.745	2790.37843
921.922	2832.58263
922.099	2729.17268
922.276	2931.74028
922.453	2779.82652
922.63	3153.14319
922.807	2769.27428
922.984	2950.72426
923.161	2558.16128
923.338	2872.67144
923.514	2418.76107
923.691	2729.17268
923.868	2629.9538
924.045	2834.69269
924.222	2657.40013
924.399	2627.84245
924.575	2439.88541
924.752	2773.49522
924.929	2452.55949
925.105	2524.3718
925.282	2346.93054
925.459	2403.97341
925.635	2422.98602
925.812	2598.28235
925.989	2281.42798
926.165	2353.269
926.342	2097.55243
926.518	2262.4094
926.695	2042.58948
926.871	2323.68875
927.048	2072.18552
927.224	2330.02754
927.401	2086.98301
927.577	2188.4414
927.754	1814.23629
927.93	2239.16348
928.107	2122.91826
928.283	2129.25954
928.459	1953.79348
928.636	2139.82819
928.812	1864.98694
928.988	2211.68964
929.165	2061.61567
929.341	2053.15966
929.517	1900.93361
929.693	2196.89542
929.87	1801.54821
930.046	1958.02211
930.222	1693.69389
930.398	1810.00694
930.574	1562.56667
930.751	1716.95736
930.927	1807.89227
931.103	1922.07798
931.279	1746.56484
931.455	1755.02399
931.631	1721.18705
931.807	1797.31882
931.983	1497.00065
932.159	1763.48308
932.335	1412.39863
932.511	1611.21161
932.687	1357.40765
932.863	1518.15108
933.039	1222.04993
933.215	1497.00065
933.391	1215.70529
933.566	1361.6377
933.742	1298.18757
933.918	1427.20397
934.094	1183.98254
934.27	1319.33745
934.445	1044.41363
934.621	1241.08402
934.797	1052.87173
934.973	1065.55906
935.148	947.15248
935.324	980.98088
935.5	841.45119
935.675	1014.81099
935.851	896.41337
936.027	1078.24658
936.202	892.18531
936.378	913.32592
936.553	761.13276
936.729	672.37686
936.904	556.18028
937.08	697.73371
937.255	606.87955
937.431	649.13455
937.606	573.07919
937.782	532.94571
937.957	463.25235
938.133	459.02903
938.308	361.91018
938.483	461.14068
938.659	355.57756
938.834	410.46532
939.009	336.58062
939.185	399.90911
939.36	414.68792
939.535	389.35331
939.71	315.47458
939.886	317.58511
940.061	228.95901
940.236	345.02353
940.411	309.14312
940.586	250.05744
940.761	389.35331
940.937	292.26001
941.112	304.92223
941.287	357.68842
941.462	271.15779
941.637	351.3559
941.812	224.73956
941.987	311.25359
942.162	134.0409
942.337	269.04767
942.512	226.84928
942.687	188.87742
942.862	163.5665
943.037	207.86254
943.212	199.42451
943.386	157.23924
943.561	226.84928
943.736	216.30089
943.911	243.72771
944.086	256.38735
944.26	228.95901
944.435	201.53399
944.61	201.53399
944.785	201.53399
944.959	193.0962
945.134	203.64348
945.309	169.89395
945.483	188.87742
945.658	199.42451
945.833	245.8376
946.007	258.49735
946.182	85.54372
946.357	129.82329
946.531	157.23924
946.706	176.22159
946.88	220.52019
947.055	119.27966
947.229	178.33085
947.404	195.20561
947.578	180.44012
947.752	161.45739
947.927	159.34831
948.101	182.54942
948.276	199.42451
948.45	193.0962
948.624	224.73956
948.799	186.76807
948.973	266.93757
949.147	228.95901
949.321	197.31505
949.496	228.95901
949.67	239.50798
949.844	163.5665
950.018	199.42451
950.193	178.33085
950.367	245.8376
950.541	157.23924
950.715	209.9721
950.889	209.9721
951.063	209.9721
951.237	311.25359
951.411	203.64348
951.585	157.23924
951.759	224.73956
951.933	226.84928
952.107	205.753
952.281	233.17854
952.455	304.92223
952.629	231.06877
952.803	237.39815
952.977	193.0962
953.151	195.20561
953.325	190.9868
953.499	233.17854
953.672	134.0409
953.846	157.23924
954.02	190.9868
954.194	209.9721
954.368	136.14973
954.541	285.92915
954.715	266.93757
954.889	174.11236
955.062	201.53399
955.236	201.53399
955.41	237.39815
955.583	233.17854
955.757	199.42451
955.93	150.91217
956.104	176.22159
956.278	235.28834
956.451	222.62986
956.625	193.0962
956.798	307.03267
956.972	220.52019
957.145	182.54942
957.319	203.64348
957.492	201.53399
957.665	169.89395
957.839	188.87742
958.012	235.28834
958.185	190.9868
958.359	184.65873
958.532	134.0409
958.705	245.8376
958.879	266.93757
959.052	201.53399
959.225	209.9721
959.398	146.69422
959.572	245.8376
959.745	125.60578
959.918	216.30089
960.091	207.86254
960.264	190.9868
960.438	197.31505
960.611	157.23924
960.784	167.78478
960.957	275.37808
961.13	176.22159
961.303	220.52019
961.476	283.8189
961.649	224.73956
961.822	283.8189
961.995	180.44012
962.168	321.80621
962.341	159.34831
962.514	288.03942
962.686	127.71452
962.859	195.20561
963.032	245.8376
963.205	258.49735
963.378	207.86254
963.551	233.17854
963.723	273.26793
963.896	144.58528
964.069	195.20561
964.242	190.9868
964.414	174.11236
964.587	281.70867
964.76	157.23924
964.932	233.17854
965.105	235.28834
965.278	182.54942
965.45	195.20561
965.623	216.30089
965.795	235.28834
965.968	193.0962
966.14	150.91217
966.313	169.89395
966.485	182.54942
966.658	169.89395
966.83	157.23924
967.003	174.11236
967.175	165.67563
967.348	148.80318
967.52	140.36746
967.692	134.0409
967.865	182.54942
968.037	180.44012
968.209	161.45739
968.382	117.171
968.554	153.02117
968.726	138.25859
968.898	66.56975
969.071	119.27966
969.243	140.36746
969.415	176.22159
969.587	102.41098
969.759	142.47636
969.932	129.82329
970.104	182.54942
970.276	157.23924
970.448	153.02117
970.62	119.27966
970.792	119.27966
970.964	93.97717
971.136	203.64348
971.308	81.32712
971.48	159.34831
971.652	5.44413
971.824	167.78478
971.996	165.67563
972.168	110.84515
972.339	182.54942
972.511	190.9868
972.683	115.06236
972.855	174.11236
973.027	155.13019
973.199	100.3025
973.37	119.27966
973.542	136.14973
973.714	98.19403
973.886	220.52019
974.057	153.02117
974.229	91.86877
974.401	174.11236
974.572	110.84515
974.744	199.42451
974.915	155.13019
975.087	142.47636
975.259	112.95374
975.43	104.51949
975.602	96.08559
975.773	89.7604
975.945	150.91217
976.116	115.06236
976.288	119.27966
976.459	83.43541
976.63	89.7604
976.802	110.84515
976.973	140.36746
977.145	93.97717
977.316	136.14973
977.487	98.19403
977.659	60.24551
977.83	53.92147
978.001	157.23924
978.172	89.7604
978.344	51.8135
978.515	178.33085
978.686	53.92147
978.857	119.27966
979.028	233.17854
979.2	13.87408
979.371	64.46165
979.542	127.71452
979.713	68.67788
979.884	60.24551
980.055	104.51949
980.226	64.46165
980.397	115.06236
980.568	123.49705
980.739	131.93208
980.91	56.02946
981.081	117.171
981.252	22.3044
981.423	81.32712
981.594	56.02946
981.765	-0.87807
981.936	51.8135
982.106	125.60578
982.277	83.43541
982.448	115.06236
982.619	62.35357
982.79	37.05838
982.96	140.36746
983.131	131.93208
983.302	102.41098
983.472	51.8135
983.643	-45.12736
983.814	87.65205
983.984	115.06236
984.155	53.92147
984.326	98.19403
984.496	85.54372
984.667	64.46165
984.837	98.19403
985.008	56.02946
985.178	66.56975
985.349	49.70556
985.519	39.16618
985.69	49.70556
985.86	64.46165
986.031	51.8135
986.201	13.87408
986.371	56.02946
986.542	56.02946
986.712	32.84284
986.882	34.9506
987.053	-2.98542
987.223	64.46165
987.393	34.9506
987.563	34.9506
987.734	91.86877
987.904	72.8942
988.074	89.7604
988.244	72.8942
988.414	5.44413
988.585	22.3044
988.755	77.11062
988.925	142.47636
989.095	13.87408
989.265	43.38186
989.435	81.32712
989.605	66.56975
989.775	43.38186
989.945	1.22931
990.115	106.62802
990.285	9.65906
990.455	81.32712
990.625	77.11062
990.795	51.8135
990.965	-5.09275
991.134	-11.4146
991.304	106.62802
991.474	72.8942
991.644	22.3044
991.814	37.05838
991.984	49.70556
992.153	22.3044
992.323	1.22931
992.493	98.19403
992.662	85.54372
992.832	77.11062
993.002	13.87408
993.171	26.51971
993.341	79.21886
993.511	3.33671
993.68	68.67788
993.85	34.9506
994.019	58.13747
994.189	72.8942
994.358	102.41098
994.528	-2.98542
994.697	98.19403
994.867	9.65906
995.036	56.02946
995.206	49.70556
995.375	93.97717
995.544	-7.20006
995.714	75.0024
995.883	64.46165
996.052	81.32712
996.222	15.98162
996.391	66.56975
996.56	34.9506
996.73	22.3044
996.899	91.86877
997.068	-66.19459
997.237	81.32712
997.406	60.24551
997.576	9.65906
997.745	45.48974
997.914	39.16618
998.083	-36.69976
998.252	56.02946
998.421	106.62802
998.59	34.9506
998.759	5.44413
998.928	41.27401
999.097	-11.4146
999.266	-7.20006
999.435	-53.55456
999.604	-2.98542
999.773	75.0024
999.942	66.56975
1000.111	1.22931
1000.28	32.84284
1000.448	-7.20006
1000.617	-19.84338
1000.786	1.22931
1000.955	-28.27177
1001.124	-5.09275
1001.292	-2.98542
1001.461	5.44413
1001.63	-0.87807
1001.798	37.05838
1001.967	37.05838
1002.136	56.02946
1002.304	22.3044
1002.473	24.41204
1002.642	75.0024
1002.81	72.8942
1002.979	-28.27177
1003.147	22.3044
1003.316	32.84284
1003.484	-36.69976
1003.653	91.86877
1003.821	5.44413
1003.99	58.13747
1004.158	75.0024
1004.327	1.22931
1004.495	22.3044
1004.663	-24.05762
1004.832	-2.98542
1005	58.13747
1005.168	56.02946
1005.337	-0.87807
1005.505	-5.09275
1005.673	60.24551
1005.842	26.51971
1006.01	188.87742
1006.178	43.38186
1006.346	-17.73622
1006.514	34.9506
1006.683	-32.48582
1006.851	64.46165
1007.019	123.49705
1007.187	43.38186
1007.355	-43.0205
1007.523	-2.98542
1007.691	98.19403
1007.859	53.92147
1008.027	47.59764
1008.195	5.44413
1008.363	64.46165
1008.531	51.8135
1008.699	43.38186
1008.867	49.70556
1009.035	-28.27177
1009.203	13.87408
1009.37	-28.27177
1009.538	83.43541
1009.706	-9.30734
1009.874	-11.4146
1010.042	72.8942
1010.209	77.11062
1010.377	-9.30734
1010.545	1.22931
1010.713	5.44413
1010.88	9.65906
1011.048	47.59764
1011.216	15.98162
1011.383	-9.30734
1011.551	64.46165
1011.718	66.56975
1011.886	15.98162
1012.054	1.22931
1012.221	-59.87469
1012.389	56.02946
1012.556	-38.8067
1012.724	62.35357
1012.891	39.16618
1013.058	-5.09275
1013.226	13.87408
1013.393	13.87408
1013.561	47.59764
1013.728	-49.34101
1013.895	39.16618
1014.063	-15.62904
1014.23	13.87408
1014.397	-26.16471
1014.565	-15.62904
1014.732	28.62739
1014.899	56.02946
1015.066	20.19678
1015.233	30.7351
1015.401	41.27401
1015.568	66.56975
1015.735	58.13747
1015.902	53.92147
1016.069	13.87408
1016.236	-11.4146
1016.403	51.8135
1016.57	-9.30734
1016.737	1.22931
1016.904	39.16618
1017.071	18.08919
1017.238	-49.34101
1017.405	22.3044
1017.572	-32.48582
1017.739	-17.73622
1017.906	-38.8067
1018.073	43.38186
1018.24	-21.95051
1018.407	-24.05762
1018.573	15.98162
1018.74	37.05838
1018.907	22.3044
1019.074	-7.20006
1019.241	56.02946
1019.407	-28.27177
1019.574	34.9506
1019.741	24.41204
1019.907	24.41204
1020.074	-0.87807
1020.241	-19.84338
1020.407	30.7351
1020.574	-2.98542
1020.74	13.87408
1020.907	30.7351
1021.073	24.41204
1021.24	-13.52183
1021.406	13.87408
1021.573	7.55158
1021.739	47.59764
1021.906	34.9506
1022.072	30.7351
1022.239	26.51971
1022.405	-19.84338
1022.571	-13.52183
1022.738	-28.27177
1022.904	-2.98542
1023.07	30.7351
1023.237	-38.8067
1023.403	22.3044
1023.569	-9.30734
1023.735	-0.87807
1023.902	47.59764
1024.068	34.9506
1024.234	83.43541
1024.4	-0.87807
1024.566	26.51971
1024.732	51.8135
1024.898	-19.84338
1025.065	-59.87469
1025.231	68.67788
1025.397	11.76656
1025.563	1.22931
1025.729	1.22931
1025.895	81.32712
1026.061	18.08919
1026.227	3.33671
1026.392	-19.84338
1026.558	-49.34101
1026.724	24.41204
1026.89	-2.98542
1027.056	-11.4146
1027.222	43.38186
1027.388	1.22931
1027.553	15.98162
1027.719	64.46165
1027.885	1.22931
1028.051	43.38186
1028.216	-0.87807
1028.382	51.8135
1028.548	22.3044
1028.713	3.33671
1028.879	7.55158
1029.045	64.46165
1029.21	51.8135
1029.376	-64.08798
1029.541	7.55158
1029.707	77.11062
1029.873	64.46165
1030.038	-74.62077
1030.204	47.59764
1030.369	87.65205
1030.534	13.87408
1030.7	32.84284
1030.865	102.41098
1031.031	43.38186
1031.196	72.8942
1031.361	7.55158
1031.527	-0.87807
1031.692	-19.84338
1031.857	-32.48582
1032.023	49.70556
1032.188	-19.84338
1032.353	18.08919
1032.518	-53.55456
1032.684	20.19678
1032.849	5.44413
1033.014	28.62739
1033.179	15.98162
1033.344	-0.87807
1033.509	-17.73622
1033.674	53.92147
1033.839	56.02946
1034.004	-19.84338
1034.17	28.62739
1034.335	5.44413
1034.5	-38.8067
1034.664	-34.5928
1034.829	49.70556
1034.994	-53.55456
1035.159	30.7351
1035.324	32.84284
1035.489	-45.12736
1035.654	58.13747
1035.819	60.24551
1035.984	32.84284
1036.148	-43.0205
1036.313	30.7351
1036.478	-43.0205
1036.643	13.87408
1036.807	-9.30734
1036.972	30.7351
1037.137	-32.48582
1037.301	22.3044
1037.466	-43.0205
1037.631	5.44413
1037.795	45.48974
1037.96	-104.10916
1038.124	37.05838
1038.289	53.92147
1038.454	58.13747
1038.618	53.92147
1038.783	-15.62904
1038.947	15.98162
1039.111	22.3044
1039.276	-40.91361
1039.44	-0.87807
1039.605	-66.19459
1039.769	1.22931
1039.933	-34.5928
1040.098	32.84284
1040.262	-30.3788
1040.426	-24.05762
1040.591	18.08919
1040.755	-17.73622
1040.919	32.84284
1041.083	-0.87807
1041.248	91.86877
1041.412	13.87408
1041.576	-43.0205
1041.74	45.48974
1041.904	22.3044
1042.068	13.87408
1042.232	75.0024
1042.397	-15.62904
1042.561	43.38186
1042.725	-17.73622
1042.889	-2.98542
1043.053	-5.09275
1043.217	93.97717
1043.381	-36.69976
1043.544	-21.95051
1043.708	68.67788
1043.872	26.51971
1044.036	87.65205
1044.2	18.08919
1044.364	72.8942
1044.528	32.84284
1044.691	-7.20006
1044.855	30.7351
1045.019	22.3044
1045.183	-40.91361
1045.346	-26.16471
1045.51	66.56975
1045.674	18.08919
1045.837	-24.05762
1046.001	49.70556
1046.165	-26.16471
1046.328	-57.768
1046.492	-30.3788
1046.655	-15.62904
1046.819	-40.91361
1046.983	-17.73622
1047.146	1.22931
1047.31	18.08919
1047.473	-0.87807
1047.636	-49.34101
1047.8	-26.16471
1047.963	-61.98135
1048.127	-2.98542
1048.29	34.9506
