Data from Scatter_Coeff_Baseline_USB4F045381__46__0046.txt Node

Date: Thu Feb 13 19:31:20 EST 2025
User: mmckonesweet
Spectrometer: USB4F04538
Trigger mode: 4
Integration Time (sec): 2.400000E-3
Scans to average: 1
Electric dark correction enabled: true
Nonlinearity correction enabled: true
Boxcar width: 0
XAxis mode: Wavelengths
Number of Pixels in Spectrum: 3648
>>>>>Begin Spectral Data<<<<<
345.52	-6.32202
345.736	-6.32202
345.952	-6.32202
346.168	35.82884
346.384	33.72107
346.6	-18.9654
346.816	65.34002
347.032	2.10739
347.248	-40.03573
347.464	8.4297
347.68	-8.42931
347.896	10.53718
348.112	-52.67674
348.328	42.15228
348.544	-0
348.76	44.26014
348.975	-52.67674
349.191	25.29023
349.407	-6.32202
349.623	27.39791
349.839	-37.92881
350.055	37.93663
350.27	52.69182
350.486	33.72107
350.702	-8.42931
350.918	-40.03573
351.133	44.26014
351.349	54.79979
351.565	31.61332
351.781	16.85977
351.996	-21.07254
352.212	18.96735
352.428	42.15228
352.644	-21.07254
352.859	16.85977
353.075	2.10739
353.291	16.85977
353.506	21.07496
353.722	-4.2147
353.938	-42.14263
354.153	69.55627
354.369	4.2148
354.584	18.96735
354.8	21.07496
355.016	50.58386
355.231	84.31387
355.447	-33.71489
355.662	-10.53658
355.878	84.31387
356.093	-16.85823
356.309	-6.32202
356.524	33.72107
356.74	-31.6079
356.955	10.53718
357.171	33.72107
357.386	35.82884
357.602	-67.42343
357.817	-33.71489
358.033	33.72107
358.248	-23.17966
358.464	50.58386
358.679	-33.71489
358.895	88.53052
359.11	46.36803
359.325	48.47593
359.541	-58.9969
359.756	37.93663
359.972	-25.28676
360.187	105.39804
360.402	-56.89021
360.618	16.85977
360.833	10.53718
361.048	-84.27527
361.264	65.34002
361.479	8.4297
361.694	2.10739
361.909	42.15228
362.125	61.12386
362.34	-31.6079
362.555	67.44814
362.77	29.5056
362.986	33.72107
363.201	48.47593
363.416	-71.63655
363.631	-2.10736
363.847	-16.85823
364.062	46.36803
364.277	2.10739
364.492	29.5056
364.707	-44.2495
364.922	40.04444
365.138	-88.48797
365.353	-40.03573
365.568	23.18258
365.783	-14.75104
365.998	80.0973
366.213	-8.42931
366.428	52.69182
366.643	109.61514
366.858	75.88082
367.073	42.15228
367.288	31.61332
367.503	25.29023
367.718	69.55627
367.933	16.85977
368.148	-33.71489
368.363	42.15228
368.578	25.29023
368.793	21.07496
369.008	69.55627
369.223	-4.2147
369.438	12.64469
369.653	63.23193
369.868	80.0973
370.083	52.69182
370.298	-50.56997
370.513	-2.10736
370.728	2.10739
370.943	54.79979
371.157	-25.28676
371.372	-50.56997
371.587	-50.56997
371.802	50.58386
372.017	-29.50088
372.232	2.10739
372.446	103.28953
372.661	-16.85823
372.876	33.72107
373.091	-25.28676
373.306	33.72107
373.52	16.85977
373.735	4.2148
373.95	12.64469
374.165	-0
374.379	44.26014
374.594	8.4297
374.809	29.5056
375.023	29.5056
375.238	37.93663
375.453	4.2148
375.667	42.15228
375.882	69.55627
376.097	16.85977
376.311	109.61514
376.526	-12.64382
376.741	86.42218
376.955	-10.53658
377.17	59.01582
377.384	-12.64382
377.599	-25.28676
377.813	8.4297
378.028	-0
378.242	52.69182
378.457	-8.42931
378.672	4.2148
378.886	-0
379.101	42.15228
379.315	14.75222
379.53	80.0973
379.744	-14.75104
379.958	25.29023
380.173	33.72107
380.387	10.53718
380.602	29.5056
380.816	23.18258
381.031	16.85977
381.245	44.26014
381.459	-69.53
381.674	12.64469
381.888	-21.07254
382.103	8.4297
382.317	61.12386
382.531	-29.50088
382.746	50.58386
382.96	84.31387
383.174	6.32224
383.388	-6.32202
383.603	12.64469
383.817	-0
384.031	-6.32202
384.246	-4.2147
384.46	-25.28676
384.674	16.85977
384.888	-0
385.103	10.53718
385.317	44.26014
385.531	-25.28676
385.745	33.72107
385.959	35.82884
386.174	29.5056
386.388	-8.42931
386.602	-21.07254
386.816	18.96735
387.03	122.26697
387.244	54.79979
387.458	10.53718
387.672	25.29023
387.887	-8.42931
388.101	109.61514
388.315	35.82884
388.529	44.26014
388.743	-33.71489
388.957	44.26014
389.171	33.72107
389.385	-8.42931
389.599	-16.85823
389.813	84.31387
390.027	-12.64382
390.241	44.26014
390.455	-29.50088
390.669	25.29023
390.883	8.4297
391.097	-33.71489
391.311	21.07496
391.525	92.74727
391.738	37.93663
391.952	-0
392.166	84.31387
392.38	50.58386
392.594	56.90779
392.808	42.15228
393.022	35.82884
393.236	10.53718
393.449	126.48442
393.663	18.96735
393.877	18.96735
394.091	92.74727
394.305	16.85977
394.518	50.58386
394.732	4.2148
394.946	-0
395.16	56.90779
395.373	42.15228
395.587	33.72107
395.801	37.93663
396.015	44.26014
396.228	27.39791
396.442	33.72107
396.656	-0
396.869	8.4297
397.083	-16.85823
397.297	35.82884
397.51	6.32224
397.724	44.26014
397.938	25.29023
398.151	63.23193
398.365	33.72107
398.578	61.12386
398.792	44.26014
399.005	29.5056
399.219	8.4297
399.433	44.26014
399.646	94.85568
399.86	18.96735
400.073	75.88082
400.287	29.5056
400.5	84.31387
400.714	12.64469
400.927	27.39791
401.141	2.10739
401.354	50.58386
401.567	12.64469
401.781	25.29023
401.994	25.29023
402.208	61.12386
402.421	31.61332
402.635	8.4297
402.848	48.47593
403.061	-6.32202
403.275	52.69182
403.488	29.5056
403.701	71.66443
403.915	18.96735
404.128	50.58386
404.341	18.96735
404.555	50.58386
404.768	65.34002
404.981	14.75222
405.195	48.47593
405.408	16.85977
405.621	33.72107
405.834	92.74727
406.048	50.58386
406.261	33.72107
406.474	101.18103
406.687	10.53718
406.9	14.75222
407.114	50.58386
407.327	59.01582
407.54	18.96735
407.753	-8.42931
407.966	75.88082
408.179	44.26014
408.392	21.07496
408.605	33.72107
408.819	-0
409.032	-35.82187
409.245	99.07256
409.458	-21.07254
409.671	27.39791
409.884	35.82884
410.097	59.01582
410.31	50.58386
410.523	14.75222
410.736	50.58386
410.949	-16.85823
411.162	14.75222
411.375	52.69182
411.588	27.39791
411.801	44.26014
412.014	21.07496
412.227	59.01582
412.44	50.58386
412.653	42.15228
412.865	69.55627
413.078	54.79979
413.291	84.31387
413.504	33.72107
413.717	46.36803
413.93	-8.42931
414.143	21.07496
414.356	103.28953
414.568	96.96411
414.781	8.4297
414.994	18.96735
415.207	-21.07254
415.42	-65.31684
415.632	44.26014
415.845	-8.42931
416.058	4.2148
416.271	-29.50088
416.483	88.53052
416.696	4.2148
416.909	8.4297
417.121	59.01582
417.334	4.2148
417.547	-16.85823
417.759	69.55627
417.972	-16.85823
418.185	-23.17966
418.397	-0
418.61	50.58386
418.823	8.4297
419.035	50.58386
419.248	42.15228
419.46	16.85977
419.673	96.96411
419.885	118.04961
420.098	101.18103
420.311	25.29023
420.523	44.26014
420.736	84.31387
420.948	-6.32202
421.161	69.55627
421.373	37.93663
421.586	-14.75104
421.798	-25.28676
422.01	8.4297
422.223	67.44814
422.435	18.96735
422.648	61.12386
422.86	-4.2147
423.073	48.47593
423.285	-12.64382
423.497	25.29023
423.71	-37.92881
423.922	111.72373
424.134	23.18258
424.347	111.72373
424.559	-14.75104
424.771	25.29023
424.984	-8.42931
425.196	12.64469
425.408	67.44814
425.621	63.23193
425.833	4.2148
426.045	46.36803
426.257	50.58386
426.47	42.15228
426.682	105.39804
426.894	21.07496
427.106	18.96735
427.318	61.12386
427.531	50.58386
427.743	90.63889
427.955	50.58386
428.167	111.72373
428.379	88.53052
428.591	54.79979
428.804	27.39791
429.016	37.93663
429.228	50.58386
429.44	101.18103
429.652	33.72107
429.864	18.96735
430.076	46.36803
430.288	75.88082
430.5	71.66443
430.712	16.85977
430.924	54.79979
431.136	67.44814
431.348	69.55627
431.56	90.63889
431.772	25.29023
431.984	46.36803
432.196	-0
432.408	12.64469
432.62	59.01582
432.832	14.75222
433.044	-33.71489
433.256	-0
433.468	23.18258
433.679	14.75222
433.891	-25.28676
434.103	75.88082
434.315	143.35507
434.527	42.15228
434.739	12.64469
434.95	23.18258
435.162	33.72107
435.374	-4.2147
435.586	59.01582
435.798	-21.07254
436.009	8.4297
436.221	128.59318
436.433	29.5056
436.645	46.36803
436.856	33.72107
437.068	42.15228
437.28	25.29023
437.491	71.66443
437.703	31.61332
437.915	75.88082
438.126	-27.39383
438.338	71.66443
438.55	37.93663
438.761	50.58386
438.973	92.74727
439.184	111.72373
439.396	61.12386
439.608	31.61332
439.819	71.66443
440.031	37.93663
440.242	71.66443
440.454	92.74727
440.665	37.93663
440.877	27.39791
441.088	88.53052
441.3	50.58386
441.511	67.44814
441.723	-6.32202
441.934	94.85568
442.146	-14.75104
442.357	33.72107
442.569	37.93663
442.78	46.36803
442.991	88.53052
443.203	61.12386
443.414	44.26014
443.626	101.18103
443.837	99.07256
444.048	92.74727
444.26	126.48442
444.471	42.15228
444.682	61.12386
444.894	75.88082
445.105	92.74727
445.316	16.85977
445.528	25.29023
445.739	42.15228
445.95	16.85977
446.161	59.01582
446.373	29.5056
446.584	75.88082
446.795	59.01582
447.006	42.15228
447.217	111.72373
447.429	86.42218
447.64	96.96411
447.851	75.88082
448.062	118.04961
448.273	4.2148
448.484	103.28953
448.695	75.88082
448.907	113.83233
449.118	35.82884
449.329	75.88082
449.54	50.58386
449.751	96.96411
449.962	42.15228
450.173	118.04961
450.384	96.96411
450.595	86.42218
450.806	86.42218
451.017	29.5056
451.228	42.15228
451.439	42.15228
451.65	42.15228
451.861	109.61514
452.072	80.0973
452.283	46.36803
452.494	80.0973
452.705	44.26014
452.915	-18.9654
453.126	96.96411
453.337	124.37568
453.548	130.70195
453.759	103.28953
453.97	50.58386
454.181	48.47593
454.391	35.82884
454.602	122.26697
454.813	107.50658
455.024	113.83233
455.235	69.55627
455.445	101.18103
455.656	111.72373
455.867	107.50658
456.078	50.58386
456.288	147.57295
456.499	120.15828
456.71	82.20557
456.921	118.04961
457.131	25.29023
457.342	107.50658
457.553	69.55627
457.763	130.70195
457.974	118.04961
458.184	16.85977
458.395	94.85568
458.606	84.31387
458.816	65.34002
459.027	126.48442
459.237	179.20971
459.448	141.24617
459.659	75.88082
459.869	103.28953
460.08	84.31387
460.29	109.61514
460.501	96.96411
460.711	145.464
460.922	143.35507
461.132	77.98905
461.343	96.96411
461.553	122.26697
461.764	187.64696
461.974	158.11802
462.184	160.22709
462.395	160.22709
462.605	156.00896
462.816	196.08454
463.026	177.10045
463.236	177.10045
463.447	145.464
463.657	130.70195
463.867	204.52245
464.078	210.85109
464.288	234.05762
464.498	210.85109
464.709	185.53762
464.919	236.16742
465.129	164.4453
465.339	206.63197
465.55	143.35507
465.76	206.63197
465.97	156.00896
466.18	196.08454
466.391	305.80158
466.601	236.16742
466.811	257.26651
467.021	272.03701
467.231	282.58793
467.441	269.92688
467.651	324.7962
467.862	324.7962
468.072	335.34939
468.282	373.34447
468.492	238.27725
468.702	373.34447
468.912	375.45547
469.122	263.59661
469.332	407.12248
469.542	356.45708
469.752	295.24965
469.962	381.78858
470.172	510.59283
470.382	348.0138
470.592	421.90167
470.802	409.23374
471.012	388.12183
471.222	464.13222
471.432	434.57018
471.642	459.90888
471.852	540.16233
472.062	485.24979
472.272	580.2967
472.482	679.59635
472.691	611.98509
472.901	561.28507
473.111	523.26513
473.321	692.27481
473.531	660.57945
473.741	732.42589
473.95	618.32312
474.16	679.59635
474.37	745.10599
474.58	759.89991
474.79	730.31258
474.999	810.62562
475.209	787.37564
475.419	855.01504
475.628	992.4336
475.838	859.24281
476.048	888.83812
476.258	973.40458
476.467	1060.09644
476.677	1206.01215
476.886	1110.84729
477.096	1161.60087
477.306	1193.32305
477.515	1140.45325
477.725	1170.06004
477.935	1136.22377
478.144	1208.12701
478.354	1148.91225
478.563	1362.51897
478.773	1263.11449
478.982	1466.15618
479.192	1398.47458
479.401	1432.31534
479.611	1550.75782
479.82	1660.73669
480.03	1487.30668
480.239	1791.85583
480.449	1569.79297
480.658	1876.4407
480.868	1901.81463
481.077	1914.50131
481.287	1734.75718
481.496	1918.73016
481.705	2039.24223
481.915	2018.10126
482.124	1821.46137
482.333	2064.61048
482.543	1969.47454
482.752	2104.77476
482.961	2206.22992
483.171	2349.92371
483.38	2138.5952
483.589	2210.4568
483.799	2278.08217
484.008	2518.91593
484.217	2248.4972
484.426	2366.82596
484.636	2417.52879
484.845	2569.59974
485.054	2366.82596
485.263	2630.83352
485.472	2502.01985
485.682	2806.0298
485.891	2713.16588
486.1	2713.16588
486.309	2854.56178
486.518	2875.66032
486.727	2886.20905
486.936	3189.85114
487.146	2915.74359
487.355	3269.92382
487.564	3120.29508
487.773	3436.31179
487.982	3303.63137
488.191	3341.54712
488.4	3267.81695
488.609	3383.66915
488.818	3253.06842
489.027	3480.52299
489.236	3501.57314
489.445	3657.28695
489.654	3611.00433
489.863	3613.10829
490.072	3345.75964
490.281	3669.90789
490.49	3718.28179
490.698	3819.20302
490.907	3661.49401
491.116	4065.00607
491.325	3735.10511
491.534	4018.80795
491.743	3842.32443
491.952	4096.49904
492.16	3943.18963
492.369	4161.56963
492.578	3999.90585
492.787	4165.76704
492.996	4123.78916
493.204	4461.46881
493.413	4321.01147
493.622	4350.36883
493.831	4214.03118
494.039	4631.14362
494.248	4478.23327
494.457	4559.93983
494.665	4289.55246
494.874	4664.64235
495.083	4597.63917
495.291	4501.28212
495.5	4536.8978
495.709	5045.28154
495.917	4783.9347
496.126	5107.95124
496.335	4817.40705
496.543	5095.41897
496.752	4949.14761
496.96	5028.5661
497.169	5051.54945
497.377	5124.65963
497.586	5103.77391
497.794	4930.33309
498.003	4890.60746
498.211	5233.22789
498.42	5034.83457
498.628	5583.55425
498.837	5166.42411
499.045	5237.40234
499.254	5293.74818
499.462	5473.10624
499.671	5358.4205
499.879	5487.6975
500.087	5539.79975
500.296	5548.13474
500.504	5368.84942
500.713	5550.21843
500.921	5750.14282
501.129	5716.83719
501.338	5541.88353
501.546	5606.46913
501.754	5743.89847
501.962	5733.49076
502.171	5725.16416
502.379	6035.07499
502.587	5733.49076
502.795	5991.42798
503.004	5978.9555
503.212	6249.00301
503.42	5831.29998
503.628	6134.80062
503.837	5775.11808
504.045	6028.84034
504.253	6224.09218
504.461	6176.33697
504.669	5983.11308
504.877	6311.26535
505.085	6288.43827
505.294	6211.63549
505.502	6161.80032
505.71	6491.70735
505.918	6468.90257
506.126	6385.95239
506.334	6327.86509
506.542	6895.51085
506.75	6613.97604
506.958	6580.82638
507.166	6645.04848
507.374	6800.33316
507.582	6543.52595
507.79	6725.8126
507.998	6529.0182
508.206	6792.05456
508.414	6769.28653
508.622	6926.53667
508.83	6510.36371
509.037	6870.68653
509.245	6914.12695
509.453	7069.19005
509.661	7118.78357
509.869	7172.49539
510.077	6922.40019
510.285	7085.72265
510.492	6984.43792
510.7	7250.97032
510.908	6984.43792
511.116	7242.7113
511.324	7230.32212
511.531	7182.82287
511.739	7228.25718
511.947	7242.7113
512.155	7031.98644
512.362	7290.19582
512.57	7325.2856
512.778	7122.91578
512.985	7438.76809
513.193	7451.14402
513.401	7436.70536
513.608	7168.36425
513.816	7246.84085
514.024	7418.13981
514.231	7665.53712
514.439	7618.14317
514.646	7519.19772
514.854	7735.57724
515.061	7457.33169
515.269	7710.85998
515.477	7578.98315
515.684	7737.63687
515.892	7824.12262
516.099	7638.75061
516.307	7527.44506
516.514	7941.43752
516.722	7828.24007
516.929	7988.75618
517.136	7842.6505
517.344	7663.47674
517.551	7679.95914
517.759	7959.95481
517.966	8021.66714
518.173	8120.36892
518.381	7945.55262
518.588	8052.51645
518.796	8329.95751
519.003	8379.24277
519.21	8428.51689
519.418	8290.93205
519.625	8054.57291
519.832	8387.4559
520.039	8280.66101
520.247	8327.90371
520.454	8194.36489
520.661	8391.56234
520.868	8258.06301
521.076	8561.91224
521.283	8539.34328
521.49	8596.78705
521.697	8403.88122
521.904	8635.75838
522.112	8496.25073
522.319	8793.62636
522.526	8407.98736
522.733	8900.17739
522.94	8742.38246
523.147	8785.4281
523.354	8672.67237
523.561	8926.80757
523.768	8908.37161
523.975	8918.61399
524.183	8930.90426
524.39	9166.3457
524.597	8967.77122
524.804	9035.34584
525.011	9313.63721
525.218	9358.62569
525.425	9162.25302
525.632	9248.18507
525.838	9041.48804
526.045	9156.11387
526.252	9068.10244
526.459	9446.53482
526.666	9231.81935
526.873	9424.04931
527.08	9471.06225
527.287	9513.97968
527.494	9620.22128
527.701	9710.08502
527.907	9550.76045
528.114	9475.14993
528.321	9558.93326
528.528	9644.73254
528.735	9689.66407
528.941	9732.5463
529.148	9469.01839
529.355	9710.08502
529.562	9652.90247
529.768	9897.88678
529.975	9773.38027
530.182	10103.91729
530.388	9656.98734
530.595	10085.56404
530.802	9891.7648
531.008	10360.7455
531.215	9893.80547
531.422	10144.6982
531.628	10105.95646
531.835	10293.50176
532.042	10052.93324
532.248	10326.1066
532.455	10101.87809
532.661	10413.71528
532.868	10262.93161
533.074	10185.47356
533.281	10244.58806
533.487	10552.21032
533.694	10340.37014
533.9	10700.82418
534.107	10460.56583
534.313	10507.40956
534.52	10330.18196
534.726	10704.89488
534.933	10419.82661
535.139	10664.18575
535.345	10700.82418
535.552	10871.75241
535.758	10631.61494
535.965	10853.44263
536.171	10855.4771
536.377	11071.06617
536.584	10656.04334
536.79	10660.11457
536.996	10898.19822
537.203	10993.79398
537.409	10806.6467
537.615	11026.33158
537.821	10859.54599
538.028	11215.40135
538.234	11010.06314
538.44	11003.96229
538.646	10790.3684
538.853	11249.9526
539.059	10912.43747
539.265	11298.72577
539.471	10944.98224
539.677	11193.04305
539.883	11637.94894
540.09	11069.0329
540.296	11339.36562
540.502	11357.65224
540.708	11268.24323
540.914	11642.0099
541.12	11725.2517
541.326	11605.45994
541.532	11469.38647
541.738	11735.40212
541.944	11382.03315
542.15	11877.48534
542.356	11713.07091
542.562	12017.49889
542.768	11759.76223
542.974	11903.86767
543.18	11903.86767
543.386	12015.46998
543.592	12023.58557
543.798	11901.83831
544.004	11702.92
544.21	12189.92793
544.415	12015.46998
544.621	12090.5344
544.827	12147.33291
545.033	12236.57589
545.239	12005.32532
545.445	12419.07534
545.651	11980.97732
545.856	12376.49714
546.062	12013.44107
546.268	12027.64332
546.474	12051.98914
546.679	12167.61666
546.885	12376.49714
547.091	12374.46953
547.297	12200.06912
547.502	12307.55461
547.708	12074.30515
547.914	12415.0204
548.119	12670.43121
548.325	12400.8279
548.531	12279.16417
548.736	12488.00525
548.942	12390.6902
549.147	12532.60294
549.353	12690.6977
549.559	12595.43995
549.764	12402.85542
549.97	12731.22893
550.175	12457.59593
550.381	12952.08468
550.586	12660.29774
550.792	13193.13263
550.997	12706.91047
551.203	12990.57598
551.408	13152.62508
551.614	13039.19398
551.819	13002.73075
552.025	13440.19125
552.23	13104.01358
552.435	13332.87011
552.641	13509.03302
552.846	13006.7823
553.052	13087.80914
553.257	13211.36043
553.462	13381.46975
553.668	13371.34502
553.873	13201.23392
554.078	13630.50826
554.283	13324.76994
554.489	13541.42767
554.694	13758.04423
554.899	13448.29051
555.105	13349.07025
555.31	13620.3858
555.515	13417.91797
555.72	13476.63743
555.925	13571.79681
556.131	13851.15802
556.336	13604.18969
556.541	13814.72293
556.746	13689.21688
556.951	13543.4523
557.156	13666.94842
557.361	13857.23044
557.567	13788.40811
557.772	13725.65534
557.977	13545.47693
558.182	14017.12895
558.387	13915.92927
558.592	13788.40811
558.797	13924.02549
559.002	14132.48923
559.207	14361.16603
559.412	14059.63098
559.617	13954.3859
559.822	14065.70261
560.027	13926.04953
560.232	13986.76971
560.437	13936.16972
560.642	14209.39213
560.847	14104.15581
561.051	14268.07925
561.256	14025.22466
561.461	14620.1732
561.666	14259.98457
561.871	14490.67239
562.076	14296.4104
562.281	14199.2735
562.485	14359.14244
562.69	14373.30752
562.895	14523.04807
563.1	14541.25924
563.305	14288.31583
563.509	14419.84936
563.714	14421.8729
563.919	14688.96863
564.123	14624.22002
564.328	14516.97765
564.533	14347.00088
564.737	14434.01411
564.942	14539.23578
565.147	14603.98586
565.351	14830.60307
565.556	14775.97309
565.761	14243.79512
565.965	14747.64623
566.17	14804.29981
566.374	14719.31921
566.579	14808.34647
566.784	14848.81295
566.988	14620.1732
567.193	14897.3724
567.397	14411.75519
567.602	14923.67531
567.806	14662.66463
568.011	15297.9816
568.215	15374.8664
568.42	15174.56192
568.624	15107.79398
568.828	14907.48891
569.033	14832.62639
569.237	15308.098
569.442	14905.46561
569.646	14901.41901
569.85	14893.32579
570.055	15231.21352
570.259	15160.39903
570.463	15202.88771
570.668	15405.21581
570.872	15302.02816
571.076	15293.93505
571.281	15548.87119
571.485	15427.4721
571.689	15514.47456
571.893	15370.81982
572.098	15611.59498
572.302	15662.17922
572.506	15639.92209
572.71	15397.12262
572.914	15478.0548
573.119	15617.66506
573.323	15544.82452
573.527	15150.28267
573.731	15728.95127
573.935	15405.21581
574.139	15888.80408
574.343	15680.38968
574.547	15726.92786
574.751	15459.84499
574.955	15872.61612
575.159	15459.84499
575.364	15654.08571
575.568	15888.80408
575.772	15896.89808
575.976	15894.87458
576.18	15609.57162
576.383	15803.81818
576.587	15983.90994
576.791	16155.91786
576.995	16014.2635
577.199	16176.15483
577.403	16026.40501
577.607	16168.06002
577.811	16348.17605
578.015	16202.46313
578.219	16240.91425
578.422	15769.41969
578.626	16137.70473
578.83	15824.05273
579.034	16123.53905
579.238	16157.94155
579.442	16323.88991
579.645	16135.68106
579.849	16534.37923
580.053	16536.40328
580.257	16483.77883
580.46	16506.04285
580.664	16396.74916
580.868	16455.44318
581.071	16690.23706
581.275	16692.26127
581.479	16469.61095
581.682	16560.69197
581.886	16627.4875
582.09	16906.84192
582.293	16819.79171
582.497	16862.30402
582.7	16807.64554
582.904	16690.23706
583.107	16692.26127
583.311	16945.30748
583.515	17121.4516
583.718	16844.08432
583.922	16894.6951
584.125	16910.89088
584.329	17131.57545
584.532	16967.57745
584.735	17074.88275
584.939	16724.64905
585.142	16655.82574
585.346	16846.10872
585.549	17107.27831
585.753	17054.63588
585.956	16989.84774
586.159	16908.8664
586.363	17394.82129
586.566	17030.34
586.769	17032.36464
586.973	17036.41393
587.176	17238.89275
587.379	17244.96755
587.582	17350.26845
587.786	16937.20939
587.989	17135.62502
588.192	17228.76813
588.395	17520.38735
588.599	17467.72915
588.802	17605.45516
589.005	17443.42608
589.208	17244.96755
589.411	17508.23527
589.615	17512.28595
589.818	17408.9975
590.021	17698.63127
590.224	17617.60817
590.427	17710.78519
590.63	17613.55716
590.833	17901.21257
591.036	17714.83653
591.239	17911.34253
591.442	17607.48066
591.645	17830.30523
591.848	17660.14464
592.051	17801.94347
592.254	17700.65692
592.457	17917.42056
592.66	17609.50615
592.863	18286.21411
593.066	18336.88205
593.269	18326.74828
593.472	17765.47934
593.675	18061.27635
593.878	17745.22196
594.081	18020.75178
594.284	18180.83224
594.486	18188.93818
594.689	18369.31077
594.892	18184.8852
595.095	18221.36255
595.298	18417.95565
595.5	18312.56115
595.703	18689.59687
595.906	18336.88205
596.109	18393.63293
596.311	18450.38679
596.514	18519.3062
596.717	18529.44179
596.92	18507.14363
597.122	18928.86161
597.325	18685.54201
597.528	18924.80582
597.73	19034.31801
597.933	18707.84393
598.136	18967.39249
598.338	18720.00881
598.541	19034.31801
598.743	18764.61461
598.946	18987.67249
599.148	19097.19145
599.351	18845.72097
599.554	18979.56044
599.756	18653.10369
599.959	19182.38107
600.161	18906.55493
600.363	19085.02209
600.566	18614.5845
600.768	19054.59934
600.971	19040.40237
601.173	18817.33302
601.376	19095.16322
601.578	19454.22499
601.78	19147.89869
601.983	19170.21069
602.185	19158.04045
602.388	19107.3327
602.59	19210.77922
602.792	19237.14964
602.995	19227.00709
603.197	18987.67249
603.399	19300.03577
603.601	19056.62749
603.804	19178.32426
604.006	19074.88107
604.208	19210.77922
604.41	19174.26747
604.613	19488.71796
604.815	19523.21214
605.017	19496.83413
605.219	19366.98341
605.421	19072.85288
605.623	19302.06442
605.826	19322.35115
606.028	19364.95463
606.23	19320.32246
606.432	19141.81369
606.634	19411.61768
606.836	19369.0122
607.038	19608.43821
607.24	19437.99342
607.442	19720.05492
607.644	19440.02235
607.846	19681.49499
608.048	19348.72452
608.25	19346.69577
608.452	19594.23335
608.654	19622.64327
608.856	19407.55994
609.058	19559.7367
609.26	19440.02235
609.462	19533.35771
609.664	19577.99948
609.866	19385.24265
610.067	18977.53244
610.269	19417.70433
610.471	19523.21214
610.673	19458.28293
610.875	19829.65456
611.077	19502.9213
611.278	19324.37985
611.48	19837.77354
611.682	19860.10108
611.884	19827.62483
612.085	19569.88265
612.287	19661.20089
612.489	19423.79101
612.69	19498.86319
612.892	19504.95037
613.094	19644.96592
613.295	19417.70433
613.497	19324.37985
613.699	19722.08443
613.9	19553.64918
614.102	19787.03102
614.304	19776.88283
614.505	19196.58004
614.707	20180.86186
614.908	19770.79397
615.11	19787.03102
615.311	19957.53629
615.513	19360.89708
615.714	19977.83651
615.916	19835.74379
616.117	19580.0287
616.319	19817.47622
616.52	19985.95672
616.722	20065.13226
616.923	19933.17658
617.124	20119.94984
617.326	19748.46846
617.527	20006.25753
617.729	19975.80647
617.93	19728.17299
618.131	19715.9959
618.333	19614.52606
618.534	19870.25013
618.735	19764.70515
618.937	19618.58466
619.138	20016.40809
619.339	19734.26159
619.54	19839.8033
619.742	19730.20252
619.943	19904.75768
620.144	19754.55719
620.345	19918.96703
620.546	19699.76003
620.748	20371.74403
620.949	20124.01052
621.15	20625.63408
621.351	20365.65147
621.552	20507.82097
621.753	20071.22295
621.954	20430.64069
622.155	20101.67697
622.356	20712.98734
622.558	20412.36204
622.759	20479.38543
622.96	19718.02541
623.161	20253.96128
623.362	20203.19722
623.563	20355.49729
623.764	20278.32897
623.965	20432.67167
624.166	20223.50253
624.366	20008.28763
624.567	20036.70953
624.768	20050.92079
624.969	19750.49804
625.17	19935.20653
625.371	19724.11394
625.572	19642.93657
625.773	19665.25968
625.973	20113.85884
626.174	20136.19267
626.375	20280.35963
626.576	20302.69725
626.777	20582.97599
626.977	19851.98192
627.178	20383.92925
627.379	20128.07122
627.58	20450.9507
627.78	20347.37402
627.981	20546.41337
628.182	20379.86749
628.382	20595.16383
628.583	20605.32047
628.784	20613.44587
628.984	20093.5558
629.185	20798.31655
629.386	20054.98119
629.586	20373.77489
629.787	20113.85884
629.987	20323.00462
630.188	20233.65534
630.388	20221.47198
630.589	20126.04087
630.79	20284.42098
630.99	20077.31368
631.191	20631.72825
631.391	20197.1057
631.591	20619.53996
631.792	20260.05315
631.992	20715.01891
632.193	20572.81957
632.393	20554.53828
632.594	20323.00462
632.794	20562.66326
632.994	20487.50978
633.195	20473.2922
633.395	20566.72577
633.595	20855.20675
633.796	20702.82959
633.996	20944.61217
634.196	20546.41337
634.397	21013.70364
634.597	20398.14554
634.797	20881.62116
634.997	20387.99103
635.198	20670.32549
635.398	20686.57741
635.598	20975.09311
635.798	20739.39798
635.998	20893.81266
636.199	20615.47723
636.399	20619.53996
636.599	20690.64043
636.799	21143.771
636.999	20672.35696
637.199	21029.96114
637.399	21015.73581
637.599	21082.79984
637.799	20985.25363
637.999	21052.31564
638.199	21042.15444
638.399	21117.34971
638.599	20920.22808
638.799	21182.38796
638.999	21129.54407
639.199	21090.92912
639.399	20950.70829
639.599	20741.4296
639.799	20643.91669
639.999	20875.52546
640.199	20936.48408
640.399	21196.61563
640.599	20314.88163
640.799	21534.07252
640.998	20901.94041
641.198	20968.99685
641.398	20654.07383
641.598	21176.29045
641.798	20987.28575
641.997	21127.51167
642.197	20906.0043
642.397	20966.96477
642.597	21267.75697
642.796	21784.18636
642.996	20786.12621
643.196	20845.04755
643.395	20954.77238
643.595	21275.88772
643.795	21462.9128
643.994	21247.43037
644.194	21121.41448
644.394	21271.82234
644.593	21023.86455
644.793	21479.17745
644.992	21273.85503
645.192	21830.96217
645.392	21649.97156
645.591	21428.35127
645.791	21107.18786
645.99	21353.1331
646.19	21290.1167
646.389	21495.44235
646.589	21739.44621
646.788	21822.8271
646.987	21031.99335
647.187	21383.62629
647.386	20979.15731
647.586	21137.67372
647.785	21391.75796
647.984	21647.93814
648.184	21395.82382
648.383	21588.97047
648.582	21391.75796
648.782	21387.69212
648.981	21178.32295
649.18	21103.12315
649.38	21442.58235
649.579	21412.08741
649.778	21395.82382
649.977	21629.63747
650.177	21544.23859
650.376	21633.70426
650.575	21597.10374
650.774	21713.00973
650.973	21839.0973
651.173	21771.98432
651.372	21735.37902
651.571	21723.17753
651.77	21896.04493
651.969	22233.7242
652.168	21527.97292
652.367	21873.67229
652.566	21735.37902
652.765	21635.73766
652.964	21747.58065
653.163	21753.68151
653.362	21814.69209
653.561	21802.4897
653.76	21487.30987
653.959	21607.27043
654.158	21839.0973
654.357	21989.60828
654.556	21442.58235
654.755	22050.63219
654.954	21830.96217
655.153	21517.80701
655.352	21771.98432
655.551	21898.07883
655.749	21735.37902
655.948	21719.1104
656.147	21788.25374
656.346	21776.05165
656.545	21725.2111
656.743	21731.31184
656.942	21828.92839
657.141	21991.64236
657.34	21649.97156
657.538	21820.79334
657.737	21271.82234
657.936	21898.07883
658.135	21623.53732
658.333	21637.77106
658.532	21611.33713
658.731	21739.44621
658.929	21680.47343
659.128	22040.4613
659.326	21837.06351
659.525	22315.10808
659.724	21965.19967
659.922	22095.38521
660.121	22123.86536
660.319	21729.27826
660.518	21680.47343
660.716	21688.60742
660.915	21869.60458
661.113	22081.14542
661.312	21837.06351
661.51	22252.03506
661.709	21997.7446
661.907	22166.58695
662.105	22024.18808
662.304	22380.21941
662.502	22182.86228
662.701	21883.84161
662.899	21497.47548
663.097	22121.83104
663.296	21879.77387
663.494	22427.02048
663.692	22068.94002
663.891	22121.83104
664.089	21950.96157
664.287	22099.45376
664.485	21900.11274
664.684	22306.96943
664.882	22414.81132
665.08	22424.98561
665.278	22050.63219
665.476	22144.20877
665.675	22331.38556
665.873	21969.26774
666.071	21761.81605
666.269	22508.41819
666.467	22420.91588
666.665	22793.35489
666.863	22127.93401
667.061	22097.41949
667.259	21981.47202
667.457	21688.60742
667.655	21737.41261
667.853	21999.77869
668.051	21627.60408
668.249	21839.0973
668.447	22154.38061
668.645	22329.35087
668.843	21680.47343
669.041	22007.91509
669.239	21814.69209
669.437	21983.50608
669.635	21666.23912
669.833	22050.63219
670.031	21948.92757
670.229	21647.93814
670.426	21509.67435
670.624	21670.30605
670.822	21328.73919
671.02	21865.5369
671.218	22026.22222
671.415	22127.93401
671.613	21649.97156
671.811	21912.31624
672.009	21942.8256
672.206	21771.98432
672.404	21916.3841
672.602	22193.03448
672.799	21999.77869
672.997	22433.12511
673.195	22064.87159
673.392	21904.18055
673.59	21497.47548
673.788	21774.01798
673.985	21652.00499
674.183	22003.84689
674.38	21967.2337
674.578	21832.99594
674.775	21444.61537
674.973	21405.98854
675.17	21914.35017
675.368	21792.32114
675.565	21308.41138
675.763	21641.83788
675.96	22280.51921
676.158	22070.97425
676.355	21639.80447
676.553	22150.31187
676.75	21710.97619
676.947	22166.58695
677.145	21788.25374
677.342	21881.80774
677.539	21568.63756
677.737	21875.70614
677.934	21452.74752
678.131	21908.24839
678.329	21603.20374
678.526	21560.5045
678.723	21597.10374
678.92	21761.81605
679.118	21747.58065
679.315	21898.07883
679.512	21593.0371
679.709	22030.29051
679.906	21312.47691
680.104	21379.56048
680.301	21328.73919
680.498	21318.57524
680.695	21509.67435
680.892	21584.90385
681.089	21586.93716
681.286	21967.2337
681.483	21340.93607
681.68	21741.47981
681.877	21273.85503
682.075	21586.93716
682.272	21355.16595
682.469	21452.74752
682.665	21381.59338
682.862	21493.40922
683.059	21603.20374
683.256	21749.61426
683.453	21194.5831
683.65	21216.94122
683.847	21387.69212
684.044	21186.45299
684.241	21180.35545
684.438	21568.63756
684.635	20962.90063
684.831	21241.33247
685.028	21129.54407
685.225	21322.64081
685.422	21031.99335
685.619	21318.57524
685.815	21194.5831
686.012	21180.35545
686.209	20637.82245
686.405	21436.48329
686.602	21275.88772
686.799	21090.92912
686.996	21007.60714
687.192	21119.3821
687.389	21048.25115
687.586	21074.67063
687.782	20840.98389
687.979	20857.2386
688.175	20887.71689
688.372	20940.54812
688.568	21046.21891
688.765	20869.4298
688.962	20903.97235
689.158	21206.77838
689.355	20824.72945
689.551	20798.31655
689.748	21054.34789
689.944	21245.39773
690.14	21101.0908
690.337	20647.97953
690.533	21005.57498
690.73	20780.0311
690.926	20875.52546
691.123	20696.73499
691.319	20743.46122
691.515	20550.47582
691.712	20024.52862
691.908	20530.16375
692.104	20615.47723
692.301	20154.46619
692.497	20335.18925
692.693	20684.5459
692.889	20306.7587
693.086	20749.55611
693.282	20457.04379
693.478	20737.36637
693.674	20647.97953
693.87	20958.8365
694.067	20981.18941
694.263	20753.61939
694.459	20459.07483
694.655	20357.52812
694.851	20121.98018
695.047	20111.82852
695.243	20201.16671
695.439	20178.8314
695.635	20359.55895
695.831	20704.86113
696.027	20593.13251
696.224	20495.63421
696.42	20479.38543
696.615	20830.82484
696.811	20796.28482
697.007	20658.13672
697.203	20416.42393
697.399	20379.86749
697.595	20087.46497
697.791	20152.43578
697.987	20093.5558
698.183	20536.25733
698.379	20371.74403
698.575	20639.85386
698.77	20073.25318
698.966	20325.03538
699.162	19998.13715
699.358	20351.43565
699.554	20201.16671
699.749	20172.74004
699.945	20219.44143
700.141	20258.02252
700.337	20124.01052
700.532	20071.22295
700.728	20032.64921
700.924	19977.83651
701.119	19916.93711
701.315	19651.054
701.511	19766.73475
701.706	20071.22295
701.902	19711.93691
702.097	19817.47622
702.293	19302.06442
702.489	19573.94105
702.684	19468.42783
702.88	19764.70515
703.075	19724.11394
703.271	19713.96641
703.466	19756.58677
703.662	19870.25013
703.857	19809.35741
704.053	19992.04692
704.248	19362.92585
704.443	19726.14346
704.639	19732.23205
704.834	19760.64595
705.03	19537.41597
705.225	20152.43578
705.42	19811.3871
705.616	19918.96703
705.811	19693.67164
706.006	19628.73121
706.202	19709.90742
706.397	19715.9959
706.592	19900.69791
706.787	19517.12484
706.983	19687.58329
707.178	20156.4966
707.373	19744.40934
707.568	19622.64327
707.763	19632.78986
707.959	20079.34393
708.154	19506.97944
708.349	19894.60828
708.544	19990.01685
708.739	19279.74949
708.934	19358.86831
709.129	19669.31848
709.324	19442.05129
709.519	19458.28293
709.714	19229.03559
709.909	19910.84738
710.104	19831.6843
710.299	20093.5558
710.494	19876.33961
710.689	20012.34785
710.884	19557.70752
711.079	19496.83413
711.274	19113.41749
711.469	19393.35797
711.664	19172.23907
711.859	19799.20899
712.054	19778.91246
712.249	19338.58083
712.443	19224.97859
712.638	19476.54384
712.833	19087.05031
713.028	19778.91246
713.223	19444.08023
713.417	19736.29113
713.612	19847.92236
713.807	19851.98192
714.002	19135.72872
714.196	19529.29947
714.391	19184.40949
714.586	19346.69577
714.78	19143.84202
714.975	19600.32112
715.17	18989.70051
715.364	19395.38681
715.559	18941.0291
715.754	19188.46632
715.948	19076.90927
716.143	19235.12112
716.337	18890.33219
716.532	18993.75656
716.726	18904.52707
716.921	19178.32426
717.115	18932.91743
717.31	19087.05031
717.504	18833.55461
717.699	18786.91822
717.893	18912.63852
718.088	19160.06881
718.282	18882.22091
718.476	18847.74871
718.671	18707.84393
718.865	18736.22888
719.059	18519.3062
719.254	18823.41609
719.448	18669.32272
719.642	18604.4481
719.837	18417.95565
720.031	18515.252
720.225	18413.90182
720.419	18853.83196
720.614	18574.0395
720.808	18509.17072
721.002	18456.46773
721.196	18754.47676
721.39	18424.03641
721.585	18697.70663
721.779	18545.65892
721.973	18551.74041
722.167	18109.90773
722.361	18120.03953
722.555	18261.89433
722.749	18213.25637
722.943	18452.41376
723.137	18405.79422
723.331	18207.17677
723.525	18592.28456
723.719	18351.0695
723.913	18419.98257
724.107	18085.59178
724.301	18576.06671
724.495	18197.04419
724.689	18142.32981
724.883	18148.40905
725.077	18272.02751
725.271	18332.82853
725.465	18213.25637
725.659	18162.59408
725.853	18444.30587
726.046	18567.95788
726.24	18351.0695
726.434	18367.28394
726.628	18543.63176
726.822	18249.73464
727.015	18178.80576
727.209	17830.30523
727.403	18393.63293
727.596	18057.22383
727.79	17972.12418
727.984	17992.38543
728.177	18174.75282
728.371	18099.77602
728.565	18417.95565
728.758	17998.46387
728.952	18233.52193
729.146	18053.17132
729.339	18598.36631
729.533	18028.85658
729.726	18059.25008
729.92	17951.86328
730.113	18253.78785
730.307	18209.2033
730.5	18235.5485
730.694	18099.77602
730.887	18057.22383
731.081	17901.21257
731.274	18128.14503
731.468	18115.9868
731.661	18115.9868
731.854	17824.22765
732.048	18634.85758
732.241	18124.09227
732.435	18221.36255
732.628	17872.84912
732.821	18089.6444
733.014	17872.84912
733.208	17826.25351
733.401	17880.95289
733.594	18093.69704
733.788	17544.69186
733.981	18109.90773
734.174	17876.901
734.367	18075.46029
734.56	18217.30945
734.754	18014.67322
734.947	18083.56547
735.14	17856.64174
735.333	18261.89433
735.526	18231.49535
735.719	18071.40771
735.912	17733.0677
736.105	17961.99368
736.298	17941.73296
736.491	17716.8622
736.684	17923.49861
736.877	17864.7454
737.07	17753.32487
737.263	17836.38283
737.456	17848.53814
737.649	17850.56403
737.842	17919.44657
738.035	18002.51619
738.228	18079.51287
738.421	17945.78508
738.614	17759.40209
738.807	17587.22587
739	17528.4888
739.192	17726.99061
739.385	18071.40771
739.578	17919.44657
739.771	17698.63127
739.964	17514.31129
740.156	17664.19581
740.349	17417.09826
740.542	17680.40061
740.735	17672.29819
740.927	17761.42784
741.12	17370.51956
741.313	17340.14301
741.505	17321.91741
741.698	17257.11725
741.891	17240.91768
742.083	17443.42608
742.276	17291.54196
742.468	17534.56492
742.661	17479.88085
742.854	17548.74266
743.046	17656.09349
743.239	17368.49443
743.431	17903.23855
743.624	17107.27831
743.816	17008.06912
744.009	16941.25843
744.201	16791.45078
744.393	16831.93797
744.586	16925.06233
744.778	17180.17096
744.971	17082.98157
745.163	17471.7797
745.355	17467.72915
745.548	17267.24207
745.74	17200.41958
745.932	17204.46934
746.125	17226.74321
746.317	17056.66055
746.509	17117.40207
746.702	17453.5523
746.894	17159.92264
747.086	17052.61121
747.278	17056.66055
747.471	17338.11793
747.663	17091.08044
747.855	17178.14612
748.047	17054.63588
748.239	17342.16809
748.431	16957.4547
748.623	16991.87232
748.815	17074.88275
749.008	16813.71861
749.2	16910.89088
749.392	17415.07307
749.584	16852.18194
749.776	17283.44195
749.968	17295.59198
750.16	16947.33201
750.352	16866.35287
750.544	16941.25843
750.736	16921.01333
750.928	16949.35654
751.12	16809.66989
751.311	16888.62172
751.503	16902.79297
751.695	16959.47924
751.887	16538.42732
752.079	17139.67459
752.271	16868.3773
752.463	16870.40173
752.654	17022.24146
752.846	17006.04451
753.038	16744.89172
753.23	16811.69425
753.421	16512.11489
753.613	16558.6679
753.805	16623.43922
753.997	16617.36681
754.188	16757.03744
754.38	16522.23502
754.572	16489.85081
754.763	16325.91374
754.955	16643.68072
755.146	16860.2796
755.338	16672.01922
755.53	16532.35519
755.721	16423.06006
755.913	16495.92281
756.104	16066.87711
756.296	16220.67675
756.487	16238.8905
756.679	16384.60577
756.87	15953.55669
757.062	15913.08615
757.253	16212.58179
757.445	16408.89261
757.636	16336.03294
757.827	16384.60577
758.019	16390.67746
758.21	16149.8468
758.401	15921.18022
758.593	16157.94155
758.784	16317.81841
758.975	15977.83926
759.167	16307.69929
759.358	16257.10439
759.549	16087.11338
759.74	15959.62731
759.932	16325.91374
760.123	16036.52298
760.314	16398.77306
760.505	16202.46313
760.696	15607.54826
760.888	16255.08061
761.079	15848.33434
761.27	16058.78264
761.461	15828.09965
761.652	15718.83423
761.843	15941.41547
762.034	15959.62731
762.225	15686.45985
762.416	15775.48999
762.607	15346.54037
762.798	15813.93544
762.989	15413.309
763.18	15322.26096
763.371	15170.51538
763.562	15281.79538
763.753	15518.52122
763.944	15605.5249
764.135	15267.63245
764.326	15229.19025
764.517	15257.51607
764.708	15498.28798
764.899	15229.19025
765.089	15411.2857
765.28	15180.63173
765.471	15633.85198
765.662	15265.60917
765.853	15735.02151
766.043	15362.72667
766.234	15411.2857
766.425	15041.02593
766.615	15077.44489
766.806	14800.25315
766.997	15026.86298
767.187	14747.64623
767.378	15077.44489
767.569	14858.92953
767.759	14628.26684
767.95	14960.0946
768.141	14970.21104
768.331	14976.2809
768.522	15261.56262
768.712	15192.77136
768.903	15130.04997
769.093	15059.23542
769.284	14905.46561
769.474	14780.01978
769.665	15059.23542
769.855	15148.2594
770.046	15350.58694
770.236	14954.02473
770.426	14923.67531
770.617	14850.83627
770.807	14551.37652
770.998	14606.00928
771.188	14674.80496
771.378	14593.86874
771.569	14769.90306
771.759	14468.41391
771.949	14280.22122
772.139	14431.99058
772.33	14302.48132
772.52	14537.21232
772.71	14512.93071
772.9	14351.04808
773.09	14081.89353
773.281	14472.46092
773.471	14262.00825
773.661	14314.6231
773.851	14383.42538
774.041	14227.60555
774.231	14102.13198
774.421	14055.58321
774.611	14041.41595
774.802	13968.5539
774.992	13907.83302
775.182	14124.39401
775.372	13863.30284
775.562	14039.39205
775.752	14209.39213
775.942	13691.24126
776.131	14231.65295
776.321	13768.1656
776.511	13762.09279
776.701	14021.17681
776.891	14116.29876
777.081	13942.24181
777.271	13679.0949
777.461	13950.33788
777.651	13747.92279
777.84	13723.63101
778.03	13739.82558
778.22	13760.06851
778.41	13954.3859
778.599	13697.3144
778.789	13616.33679
778.979	13492.83535
779.169	13810.67453
779.358	13673.02167
779.548	13486.76116
779.738	13446.2657
779.927	13650.75293
780.117	13294.39371
780.307	13369.32006
780.496	13284.26809
780.686	13438.16642
780.875	13413.86823
781.065	13492.83535
781.254	13397.66912
781.444	13818.77132
781.633	13642.6551
781.823	13533.32909
782.012	13507.00832
782.202	13547.50156
782.391	13326.79499
782.581	13221.48684
782.77	13130.34514
782.96	13391.59439
783.149	12950.05877
783.338	13012.85959
783.528	13235.66362
783.717	13213.38572
783.906	13091.86028
784.096	12895.35724
784.285	12866.99196
784.474	12721.09634
784.663	12891.30512
784.853	12864.96583
785.042	12725.1494
785.231	13375.39493
785.42	12948.03285
785.61	13213.38572
785.799	12625.84281
785.988	13051.34803
786.177	12903.46141
786.366	12860.91355
786.555	12881.17473
786.744	12824.44206
786.933	12597.46685
787.122	12885.2269
787.312	13093.88584
787.501	12935.87725
787.69	12625.84281
787.879	12956.13648
788.068	12516.38596
788.257	12682.59117
788.445	12510.30448
788.634	12625.84281
788.823	12662.32444
789.012	12447.45916
789.201	11924.16082
789.39	11895.75018
789.579	11871.39691
789.768	11995.18046
789.957	11883.57369
790.145	11980.97732
790.334	12179.78655
790.523	12429.21257
790.712	12333.91593
790.9	12084.44849
791.089	12003.29636
791.278	12090.5344
791.467	11873.42639
791.655	12191.95618
791.844	11930.24861
792.033	12352.16539
792.221	11920.10226
792.41	12047.93158
792.599	11587.18385
792.787	12372.44192
792.976	12106.76315
793.164	11808.47871
793.353	11936.33632
793.541	12159.50325
793.73	11757.73227
793.918	12238.60398
794.107	11792.24044
794.295	11729.31189
794.484	11893.72078
794.672	11993.15146
794.861	11798.32985
795.049	11859.21983
795.238	11729.31189
795.426	11832.83511
795.614	11692.76888
795.803	11891.69138
795.991	11398.2863
796.179	11538.44394
796.368	11704.9502
796.556	11729.31189
796.744	11613.58241
796.932	11800.35964
797.121	11325.14213
797.309	11404.38106
797.497	11426.72779
797.685	11540.47488
797.874	11371.87461
798.062	11524.22712
798.25	11176.78168
798.438	11713.07091
798.626	11296.69367
798.814	11209.30376
799.002	10916.50573
799.19	11018.19745
799.378	11075.13269
799.566	11166.61798
799.755	11091.39833
799.943	11085.2988
800.131	11343.42938
800.318	11412.50728
800.506	11284.50087
800.694	11327.17409
800.882	11217.43386
801.07	11438.91642
801.258	11217.43386
801.446	11166.61798
801.634	10993.79398
801.822	11294.66157
802.01	11343.42938
802.197	11312.95018
802.385	11020.231
802.573	10890.06126
802.761	10971.42274
802.949	11073.09944
803.136	10916.50573
803.324	11034.46554
803.512	10993.79398
803.699	11343.42938
803.887	10881.92411
804.075	11028.36509
804.262	10985.65914
804.45	10995.82767
804.638	11073.09944
804.825	11132.05942
805.013	11168.65074
805.201	11268.24323
805.388	11205.23864
805.576	11180.84709
805.763	11022.26454
805.951	11335.30182
806.138	11111.72941
806.326	11410.47574
806.513	10979.55789
806.701	11270.27547
806.888	10975.49034
807.075	11499.85435
807.263	10957.18578
807.45	11239.79077
807.638	10987.69287
807.825	11083.2656
808.012	11125.96053
808.2	11343.42938
808.387	11158.48683
808.574	11314.98219
808.761	11369.84287
808.949	11132.05942
809.136	10951.08406
809.323	11260.11416
809.51	11310.91815
809.698	11172.71623
809.885	11024.29806
810.072	11071.06617
810.259	11101.56401
810.446	10719.14193
810.633	10857.51155
810.82	11138.15821
811.008	11199.1409
811.195	11308.88611
811.382	10826.99351
811.569	11217.43386
811.756	11195.07568
811.943	11432.82215
812.13	11089.36517
812.317	11396.25469
812.504	11436.88501
812.691	11432.82215
812.878	11081.23239
813.064	11339.36562
813.251	11066.99961
813.438	11182.87977
813.625	11319.0462
813.812	11168.65074
813.999	11150.35551
814.186	11333.2699
814.372	11018.19745
814.559	11207.2712
814.746	11111.72941
814.933	11262.14644
815.12	11349.52495
815.306	11154.42119
815.493	11030.39858
815.68	11296.69367
815.866	10969.38892
816.053	11142.22402
816.24	10993.79398
816.426	11148.32265
816.613	10965.32125
816.799	11160.51963
816.986	11127.9935
817.173	10725.24763
817.359	10725.24763
817.546	11359.68404
817.732	10908.36917
817.919	11142.22402
818.105	10833.09733
818.292	10885.9927
818.478	11105.6302
818.665	10949.05013
818.851	10751.70441
819.037	10759.84456
819.224	10623.47174
819.41	10816.82025
819.597	10784.26384
819.783	10940.9143
819.969	10930.74426
820.156	10774.08935
820.342	10806.6467
820.528	11060.89968
820.714	10660.11457
820.901	10672.32796
821.087	10855.4771
821.273	11203.20607
821.459	10926.67617
821.646	11054.79966
821.832	10847.33916
822.018	10676.399
822.204	10421.8637
822.39	10629.57916
822.576	10592.933
822.762	10721.17718
822.948	10723.21241
823.134	10403.52948
823.32	10613.29247
823.507	11032.43206
823.693	10788.33356
823.879	10808.68143
824.065	10580.71672
824.25	10835.13191
824.436	10831.06274
824.622	10991.76029
824.808	10715.0714
824.994	10755.77451
825.18	10647.90074
825.366	10778.15918
825.552	10236.43502
825.738	10521.66501
825.923	10456.49214
826.109	10733.38839
826.295	10592.933
826.481	10727.28284
826.667	10303.69114
826.852	10297.57755
827.038	10183.43492
827.224	10228.28176
827.409	10008.05993
827.595	10297.57755
827.781	9804.00178
827.966	10179.35761
828.152	10006.02007
828.338	10073.32792
828.523	9767.25556
828.709	10132.46452
828.894	9948.89814
829.08	10097.79967
829.266	9928.49469
829.451	10242.54982
829.637	10046.81456
829.822	10185.47356
830.008	9910.13034
830.193	9961.13951
830.378	10150.81486
830.564	10175.28024
830.749	10065.17021
830.935	10130.42552
831.12	9577.32115
831.305	9869.31641
831.491	9540.54409
831.676	9703.9589
831.861	9419.96082
832.047	9799.91911
832.232	9546.67395
832.417	9403.60622
832.602	9532.37071
832.788	9877.47966
832.973	9746.83888
833.158	9863.19381
833.343	9752.96405
833.528	9865.23469
833.714	9614.09311
833.899	9699.87474
834.084	9501.71828
834.269	9746.83888
834.454	9513.97968
834.639	9624.30665
834.824	9503.76189
835.009	9113.13552
835.194	9460.84277
835.379	9528.28393
835.564	9186.80808
835.749	9360.67043
835.934	9147.9281
836.119	9554.84689
836.304	9248.18507
836.489	9223.63609
836.674	8986.20256
836.859	9072.1967
837.044	9313.63721
837.228	9276.82248
837.413	9117.22902
837.598	9280.91327
837.783	9031.25095
837.968	9389.29509
838.152	9354.53616
838.337	9262.50418
838.522	9068.10244
838.707	9100.8546
838.891	9043.53541
839.076	9295.23052
839.261	9291.13996
839.445	9250.23071
839.63	8900.17739
839.815	9176.5771
839.999	8721.88171
840.184	8937.04915
840.368	8865.34875
840.553	8924.7592
840.737	8715.73112
840.922	8797.72538
841.106	8824.36724
841.291	8830.51492
841.475	8658.31765
841.66	8783.37849
841.844	8613.19686
842.029	8619.35022
842.213	8477.77993
842.397	8488.04168
842.582	8268.33513
842.766	8744.43244
842.951	8360.76211
843.135	8584.47892
843.319	8403.88122
843.504	8594.73574
843.688	8678.82412
843.872	8711.63064
844.056	8555.7573
844.241	8652.16534
844.425	8537.29145
844.609	8703.42945
844.793	8510.61585
844.977	8461.36014
845.161	8305.31067
845.346	8828.46571
845.53	8459.30758
845.714	8592.68442
845.898	8461.36014
846.082	8280.66101
846.266	8276.55246
846.45	8420.30531
846.634	8379.24277
846.818	8600.88962
847.002	8446.99182
847.186	8403.88122
847.37	7795.29813
847.554	8206.69505
847.738	7797.35716
847.922	8009.32614
848.106	7852.94303
848.29	7861.17669
848.473	7803.53412
848.657	7778.82516
848.841	7920.86081
849.025	8223.13414
849.209	7959.95481
849.392	8126.53624
849.576	8029.89407
849.76	7953.78256
849.944	7844.70905
850.127	8284.76949
850.311	7972.29874
850.495	8108.03374
850.678	7964.06953
850.862	8058.68576
851.046	7745.8752
851.229	7904.39796
851.413	7776.76595
851.596	7996.98441
851.78	7803.53412
851.964	7797.35716
852.147	7395.44619
852.331	7614.02142
852.514	7374.81334
852.698	7698.50021
852.881	7591.35031
853.065	7640.81124
853.248	7543.93871
853.431	7529.50684
853.615	7473.8312
853.798	7714.97973
853.982	7519.19772
854.165	7486.20492
854.348	7079.52309
854.532	7453.2066
854.715	7122.91578
854.898	7358.30549
855.081	7345.92369
855.265	7395.44619
855.448	6872.75534
855.631	7073.32333
855.814	6849.99709
855.997	6895.51085
856.181	6849.99709
856.364	7085.72265
856.547	6715.46018
856.73	6984.43792
856.913	6998.91047
857.096	7205.54136
857.279	7062.98995
857.462	7242.7113
857.645	6982.37032
857.828	7139.44374
858.011	6936.87748
858.194	6883.0991
858.377	6767.21657
858.56	6972.032
858.743	6680.25765
858.926	6657.47601
859.109	6456.46242
859.292	6738.23475
859.475	6839.65152
859.658	6827.23608
859.841	6543.52595
860.023	6831.37465
860.206	6725.8126
860.389	6800.33316
860.572	6593.2582
860.755	6785.84537
860.937	6845.85893
861.12	6754.79634
861.303	6705.10718
861.486	6775.49626
861.668	6473.0491
861.851	6524.87292
862.034	6273.91048
862.216	6707.17783
862.399	6273.91048
862.581	6599.47379
862.764	6136.87766
862.947	6352.76189
863.129	6286.36294
863.312	6419.13693
863.494	6265.60836
863.677	6423.28458
863.859	6093.25486
864.042	6257.30588
864.224	6093.25486
864.406	6388.0266
864.589	6049.62169
864.771	6390.10079
864.954	6195.02527
865.136	6151.41629
865.318	6024.68379
865.501	6275.98595
865.683	5831.29998
865.865	6107.79694
866.048	5795.9282
866.23	6178.41354
866.412	5951.92887
866.594	6215.78782
866.777	6066.24507
866.959	6141.03167
867.141	5770.95577
867.323	5860.42457
867.505	5804.25158
867.687	5814.65528
867.869	5779.28029
868.052	5983.11308
868.234	5627.29837
868.416	5981.0343
868.598	5718.91896
868.78	5752.22422
868.962	5673.11438
869.144	5854.18397
869.326	5616.88405
869.508	5733.49076
869.69	5712.67356
869.872	5768.87458
870.054	5483.52869
870.236	5770.95577
870.417	5571.05403
870.599	5648.12524
870.781	5395.96184
870.963	5550.21843
871.145	5385.53445
871.327	5616.88405
871.508	5510.6243
871.69	5725.16416
871.872	5575.22086
872.054	5635.6294
872.235	5270.79452
872.417	5548.13474
872.599	5258.27315
872.78	5468.93709
872.962	5295.83473
873.144	5410.55919
873.325	5216.52918
873.507	5658.53779
873.689	5314.61268
873.87	5820.89722
874.052	5370.93513
874.233	5635.6294
874.415	5258.27315
874.596	5575.22086
874.778	5254.09918
874.959	5400.13263
875.141	5114.21706
875.322	5270.79452
875.503	5149.71943
875.685	5266.62082
875.866	5176.86377
876.048	5277.05489
876.229	5366.76368
876.41	5443.92025
876.592	5162.24808
876.773	5479.35978
876.954	5283.31505
877.136	5858.34439
877.317	5431.41056
877.498	5683.52551
877.679	5504.37182
877.86	5610.63517
878.042	5289.57499
878.223	5693.93606
878.404	5176.86377
878.585	5475.19077
878.766	5162.24808
878.947	5471.02168
879.128	5279.14163
879.309	5483.52869
879.49	5383.44891
879.672	5500.20338
879.853	5316.699
880.034	5462.6832
880.215	5277.05489
880.396	5554.38574
880.576	5239.48952
880.757	5754.3056
880.938	5356.33465
881.119	5756.38695
881.3	5504.37182
881.481	5687.6898
881.662	5379.27774
881.843	5748.06139
882.023	5416.81485
882.204	5518.96062
882.385	5358.4205
882.566	5485.61311
882.747	5224.87873
882.927	5581.47094
883.108	5418.90002
883.289	5485.61311
883.469	5195.6537
883.65	5420.98517
883.831	5224.87873
884.011	5712.67356
884.192	5546.05103
884.373	5816.73595
884.553	5521.04463
884.734	5712.67356
884.914	5581.47094
885.095	5675.19665
885.275	5456.42909
885.456	5575.22086
885.636	5446.00512
885.817	5660.62023
885.997	5554.38574
886.178	5754.3056
886.358	5818.8166
886.538	5781.36136
886.719	5566.8871
886.899	5700.1821
887.08	5679.36113
887.26	5504.37182
887.44	5302.09426
887.621	5548.13474
887.801	5112.12847
887.981	5689.77191
888.161	5575.22086
888.342	5573.13746
888.522	5596.05363
888.702	5629.38116
888.882	5477.27529
889.062	5587.72081
889.242	5662.70265
889.423	5493.95055
889.603	5368.84942
889.783	5358.4205
889.963	5345.90504
890.143	5668.94976
890.323	5462.6832
890.503	5587.72081
890.683	5350.07695
890.863	5683.52551
891.043	5291.6616
891.223	5550.21843
891.403	5431.41056
891.583	5887.46468
891.763	5537.71594
891.943	5623.13271
892.122	5591.88727
892.302	5491.86622
892.482	5429.32553
892.662	5754.3056
892.842	5593.97046
893.022	5808.41313
893.201	5433.49557
893.381	5558.55295
893.561	5389.70548
893.741	5479.35978
893.92	5249.92511
894.1	5404.30333
894.28	5099.59648
894.459	5335.47484
894.639	4926.15184
894.819	5028.5661
894.998	4907.33505
895.178	4990.95096
895.357	4984.68105
895.537	5089.15252
895.716	4978.41092
895.896	5024.38701
896.075	5032.7451
896.255	4913.60752
896.434	4790.21121
896.614	4905.24418
896.793	5024.38701
896.973	5133.01327
897.152	5116.30562
897.331	5112.12847
897.511	4997.22067
897.69	4857.14788
897.87	4689.76262
898.049	4961.68958
898.228	4538.99264
898.407	4685.57613
898.587	4652.081
898.766	4779.75025
898.945	4656.26821
899.124	4652.081
899.304	4471.94676
899.483	4641.61259
899.662	4555.75057
899.841	4840.4159
900.02	4545.27703
900.199	4681.38956
900.378	4446.79874
900.557	4656.26821
900.737	4532.70805
900.916	4417.45539
901.095	4272.77235
901.274	4520.13828
901.453	4532.70805
901.632	4446.79874
901.811	4321.01147
901.989	4480.32873
902.168	4266.47945
902.347	4228.71804
902.526	4002.00617
902.705	4142.68024
902.884	3999.90585
903.063	4211.93297
903.242	4016.7078
903.42	4151.07574
903.599	3911.67422
903.778	4230.81608
903.957	3941.08874
904.135	4167.86571
904.314	3632.04302
904.493	4094.39965
904.672	3829.71305
904.85	3995.70516
905.029	3800.28372
905.207	3867.54505
905.386	3699.35408
905.565	3781.36283
905.743	3762.44036
905.922	3796.07921
906.1	3661.49401
906.279	3741.41353
906.457	3505.78296
906.636	3714.07577
906.814	3552.08606
906.993	3413.15039
907.171	3518.41195
907.35	3667.80445
907.528	3303.63137
907.707	3457.36573
907.885	3253.06842
908.063	3295.20489
908.242	3278.35111
908.42	3299.41816
908.598	3038.07007
908.777	3221.46165
908.955	3025.41797
909.133	3145.59023
909.311	2860.89149
909.49	3276.24431
909.668	3156.12919
909.846	3219.35439
910.024	2922.07205
910.202	3183.52859
910.38	2869.3309
910.559	3168.77541
910.737	2886.20905
910.915	3033.85277
911.093	2962.14922
911.271	3263.60317
911.449	3092.8894
911.627	3265.71007
911.805	3141.37453
911.983	3272.03067
912.161	3139.26666
912.339	3179.31348
912.517	2995.89425
912.695	3253.06842
912.872	2738.49497
913.05	3016.98293
913.228	2960.04003
913.406	3065.48106
913.584	3061.26415
913.762	3170.88306
913.939	3076.02304
914.117	3244.64031
914.295	2970.58584
914.473	3130.83501
914.65	2962.14922
914.828	3219.35439
915.006	3016.98293
915.184	3126.61908
915.361	2825.02145
915.539	3280.45789
915.716	2979.02222
915.894	2993.7853
916.072	2844.01198
916.249	2976.91314
916.427	2730.05215
916.604	3029.6354
916.782	2863.00136
916.959	3092.8894
917.137	2689.9459
917.314	3050.72162
917.492	2926.29095
917.669	3033.85277
917.847	2831.35175
918.024	2974.80406
918.201	2808.14004
918.379	2844.01198
918.556	2681.50189
918.733	2968.47671
918.911	2736.38429
919.088	2875.66032
919.265	2635.05616
919.442	2675.16874
919.62	2620.2767
919.797	2768.04316
919.974	2578.04638
920.151	2609.71958
920.328	2455.55193
920.506	2673.05766
920.683	2561.15291
920.86	2641.39002
921.037	2421.75375
921.214	2624.49947
921.391	2476.67438
921.568	2599.16215
921.745	2400.62851
921.922	2430.20355
922.099	2430.20355
922.276	2561.15291
922.453	2419.64127
922.63	2561.15291
922.807	2476.67438
922.984	2394.29073
923.161	2273.85586
923.338	2459.77651
923.514	2286.53469
923.691	2436.54079
923.868	2271.74269
924.045	2197.77604
924.222	2326.68208
924.399	2493.57154
924.575	2041.35629
924.752	2349.92371
924.929	2028.67183
925.105	2362.60046
925.282	2011.75884
925.459	1914.50131
925.635	1956.78876
925.812	1867.98256
925.989	1652.27698
926.165	1838.37843
926.342	1791.85583
926.518	2109.00242
926.695	1829.91994
926.871	1813.00273
927.048	1779.16748
927.224	2018.10126
927.401	1734.75718
927.577	1899.70017
927.754	1648.04711
927.93	1749.5608
928.107	1698.80484
928.283	2003.30218
928.459	1910.27244
928.636	2045.58438
928.812	1781.28222
928.988	1933.53095
929.165	1777.05275
929.341	1829.91994
929.517	1607.86289
929.693	1768.59375
929.87	1563.44793
930.046	1802.42933
930.222	1387.89937
930.398	1652.27698
930.574	1368.86405
930.751	1571.90798
930.927	1311.75872
931.103	1658.62177
931.279	1337.13873
931.455	1641.70229
931.631	1345.59879
931.807	1466.15618
931.983	1474.61638
932.159	1491.53678
932.335	1210.24188
932.511	1491.53678
932.687	1227.16091
932.863	1368.86405
933.039	1140.45325
933.215	1337.13873
933.391	1134.10904
933.566	1220.81625
933.742	1083.35688
933.918	1178.51926
934.094	922.66327
934.27	1030.4932
934.445	838.10432
934.621	1019.92089
934.797	922.66327
934.973	888.83812
935.148	865.58452
935.324	878.26818
935.5	721.85944
935.675	840.21813
935.851	781.03494
936.027	778.92139
936.202	641.5635
936.378	683.82246
936.553	675.37029
936.729	802.17095
936.904	616.21043
937.08	576.0718
937.255	506.36885
937.431	457.79724
937.606	388.12183
937.782	548.61126
937.957	390.23295
938.133	476.80258
938.308	324.7962
938.483	362.78973
938.659	343.79226
938.834	373.34447
939.009	286.80843
939.185	331.12806
939.36	314.24345
939.535	288.91871
939.71	208.74152
939.886	314.24345
940.061	189.75633
940.236	248.82665
940.411	215.07028
940.586	242.49695
940.761	198.19399
940.937	244.60683
941.112	215.07028
941.287	257.26651
941.462	206.63197
941.637	269.92688
941.812	217.1799
941.987	172.88198
942.162	141.24617
942.337	156.00896
942.512	212.96067
942.687	145.464
942.862	202.41294
943.037	158.11802
943.212	189.75633
943.386	158.11802
943.561	168.6636
943.736	181.31899
943.911	227.72833
944.086	208.74152
944.26	164.4453
944.435	174.9912
944.61	206.63197
944.785	137.02842
944.959	137.02842
945.134	134.91958
945.309	130.70195
945.483	105.39804
945.658	236.16742
945.833	160.22709
946.007	196.08454
946.182	204.52245
946.357	160.22709
946.531	261.48656
946.706	113.83233
946.88	143.35507
947.055	166.55444
947.229	139.13728
947.404	170.77278
947.578	206.63197
947.752	189.75633
947.927	122.26697
948.101	153.89993
948.276	185.53762
948.45	212.96067
948.624	227.72833
948.799	206.63197
948.973	196.08454
949.147	181.31899
949.321	177.10045
949.496	221.39921
949.67	170.77278
949.844	179.20971
950.018	170.77278
950.193	134.91958
950.367	196.08454
950.541	122.26697
950.715	246.71673
950.889	177.10045
951.063	115.94096
951.237	204.52245
951.411	225.6186
951.585	189.75633
951.759	162.33619
951.933	219.28955
952.107	185.53762
952.281	193.97512
952.455	212.96067
952.629	198.19399
952.803	204.52245
952.977	221.39921
953.151	177.10045
953.325	219.28955
953.499	187.64696
953.672	244.60683
953.846	151.79091
954.02	153.89993
954.194	219.28955
954.368	227.72833
954.541	274.14716
954.715	179.20971
954.889	177.10045
955.062	202.41294
955.236	297.36
955.41	126.48442
955.583	244.60683
955.757	286.80843
955.93	160.22709
956.104	191.86571
956.278	179.20971
956.451	160.22709
956.625	183.42829
956.798	168.6636
956.972	219.28955
957.145	67.44814
957.319	227.72833
957.492	137.02842
957.665	307.91202
957.839	156.00896
958.012	236.16742
958.185	196.08454
958.359	312.13296
958.532	185.53762
958.705	202.41294
958.879	206.63197
959.052	137.02842
959.225	164.4453
959.398	257.26651
959.572	185.53762
959.745	185.53762
959.918	145.464
960.091	193.97512
960.264	272.03701
960.438	217.1799
960.611	168.6636
960.784	164.4453
960.957	189.75633
961.13	118.04961
961.303	189.75633
961.476	204.52245
961.649	172.88198
961.822	179.20971
961.995	238.27725
962.168	109.61514
962.341	153.89993
962.514	261.48656
962.686	120.15828
962.859	210.85109
963.032	172.88198
963.205	174.9912
963.378	227.72833
963.551	263.59661
963.723	196.08454
963.896	238.27725
964.069	206.63197
964.242	147.57295
964.414	187.64696
964.587	221.39921
964.76	191.86571
964.932	145.464
965.105	187.64696
965.278	147.57295
965.45	99.07256
965.623	204.52245
965.795	191.86571
965.968	181.31899
966.14	172.88198
966.313	172.88198
966.485	151.79091
966.658	185.53762
966.83	151.79091
967.003	141.24617
967.175	101.18103
967.348	219.28955
967.52	54.79979
967.692	231.94784
967.865	134.91958
968.037	168.6636
968.209	109.61514
968.382	202.41294
968.554	151.79091
968.726	143.35507
968.898	101.18103
969.071	172.88198
969.243	126.48442
969.415	118.04961
969.587	145.464
969.759	151.79091
969.932	187.64696
970.104	109.61514
970.276	88.53052
970.448	162.33619
970.62	113.83233
970.792	143.35507
970.964	120.15828
971.136	187.64696
971.308	111.72373
971.48	63.23193
971.652	153.89993
971.824	109.61514
971.996	122.26697
972.168	126.48442
972.339	109.61514
972.511	128.59318
972.683	130.70195
972.855	111.72373
973.027	111.72373
973.199	181.31899
973.37	168.6636
973.542	202.41294
973.714	52.69182
973.886	145.464
974.057	92.74727
974.229	101.18103
974.401	134.91958
974.572	132.81075
974.744	50.58386
974.915	122.26697
975.087	202.41294
975.259	113.83233
975.43	219.28955
975.602	67.44814
975.773	10.53718
975.945	88.53052
976.116	107.50658
976.288	118.04961
976.459	69.55627
976.63	210.85109
976.802	120.15828
976.973	168.6636
977.145	139.13728
977.316	120.15828
977.487	67.44814
977.659	50.58386
977.83	128.59318
978.001	96.96411
978.172	96.96411
978.344	86.42218
978.515	128.59318
978.686	126.48442
978.857	168.6636
979.028	137.02842
979.2	77.98905
979.371	71.66443
979.542	84.31387
979.713	118.04961
979.884	73.77262
980.055	44.26014
980.226	46.36803
980.397	109.61514
980.568	75.88082
980.739	128.59318
980.91	126.48442
981.081	71.66443
981.252	63.23193
981.423	120.15828
981.594	166.55444
981.765	143.35507
981.936	-0
982.106	113.83233
982.277	4.2148
982.448	86.42218
982.619	42.15228
982.79	92.74727
982.96	128.59318
983.131	96.96411
983.302	46.36803
983.472	65.34002
983.643	42.15228
983.814	145.464
983.984	61.12386
984.155	96.96411
984.326	84.31387
984.496	29.5056
984.667	107.50658
984.837	63.23193
985.008	122.26697
985.178	130.70195
985.349	94.85568
985.519	61.12386
985.69	94.85568
985.86	61.12386
986.031	59.01582
986.201	8.4297
986.371	61.12386
986.542	54.79979
986.712	16.85977
986.882	120.15828
987.053	69.55627
987.223	94.85568
987.393	118.04961
987.563	84.31387
987.734	84.31387
987.904	101.18103
988.074	16.85977
988.244	23.18258
988.414	162.33619
988.585	92.74727
988.755	10.53718
988.925	50.58386
989.095	92.74727
989.265	90.63889
989.435	113.83233
989.605	52.69182
989.775	75.88082
989.945	18.96735
990.115	71.66443
990.285	14.75222
990.455	80.0973
990.625	99.07256
990.795	27.39791
990.965	84.31387
991.134	33.72107
991.304	46.36803
991.474	-0
991.644	88.53052
991.814	65.34002
991.984	134.91958
992.153	75.88082
992.323	77.98905
992.493	69.55627
992.662	33.72107
992.832	99.07256
993.002	86.42218
993.171	88.53052
993.341	113.83233
993.511	18.96735
993.68	75.88082
993.85	54.79979
994.019	126.48442
994.189	37.93663
994.358	126.48442
994.528	23.18258
994.697	69.55627
994.867	35.82884
995.036	42.15228
995.206	120.15828
995.375	16.85977
995.544	16.85977
995.714	16.85977
995.883	12.64469
996.052	59.01582
996.222	8.4297
996.391	35.82884
996.56	21.07496
996.73	139.13728
996.899	-0
997.068	46.36803
997.237	37.93663
997.406	31.61332
997.576	65.34002
997.745	46.36803
997.914	88.53052
998.083	33.72107
998.252	27.39791
998.421	61.12386
998.59	33.72107
998.759	63.23193
998.928	88.53052
999.097	33.72107
999.266	122.26697
999.435	-31.6079
999.604	50.58386
999.773	52.69182
999.942	99.07256
1000.111	52.69182
1000.28	10.53718
1000.448	-2.10736
1000.617	61.12386
1000.786	35.82884
1000.955	122.26697
1001.124	86.42218
1001.292	29.5056
1001.461	103.28953
1001.63	12.64469
1001.798	50.58386
1001.967	67.44814
1002.136	42.15228
1002.304	56.90779
1002.473	59.01582
1002.642	-16.85823
1002.81	80.0973
1002.979	65.34002
1003.147	-8.42931
1003.316	29.5056
1003.484	-0
1003.653	2.10739
1003.821	29.5056
1003.99	80.0973
1004.158	63.23193
1004.327	73.77262
1004.495	-21.07254
1004.663	21.07496
1004.832	25.29023
1005	63.23193
1005.168	42.15228
1005.337	59.01582
1005.505	52.69182
1005.673	59.01582
1005.842	18.96735
1006.01	77.98905
1006.178	54.79979
1006.346	27.39791
1006.514	-48.46317
1006.683	50.58386
1006.851	31.61332
1007.019	33.72107
1007.187	37.93663
1007.355	67.44814
1007.523	101.18103
1007.691	8.4297
1007.859	54.79979
1008.027	63.23193
1008.195	67.44814
1008.363	92.74727
1008.531	77.98905
1008.699	54.79979
1008.867	35.82884
1009.035	-6.32202
1009.203	59.01582
1009.37	21.07496
1009.538	18.96735
1009.706	59.01582
1009.874	33.72107
1010.042	69.55627
1010.209	-6.32202
1010.377	18.96735
1010.545	50.58386
1010.713	-67.42343
1010.88	69.55627
1011.048	86.42218
1011.216	63.23193
1011.383	-29.50088
1011.551	33.72107
1011.718	63.23193
1011.886	37.93663
1012.054	12.64469
1012.221	29.5056
1012.389	67.44814
1012.556	46.36803
1012.724	40.04444
1012.891	37.93663
1013.058	18.96735
1013.226	16.85977
1013.393	27.39791
1013.561	-4.2147
1013.728	134.91958
1013.895	48.47593
1014.063	42.15228
1014.23	63.23193
1014.397	8.4297
1014.565	33.72107
1014.732	103.28953
1014.899	18.96735
1015.066	50.58386
1015.233	8.4297
1015.401	109.61514
1015.568	59.01582
1015.735	67.44814
1015.902	-6.32202
1016.069	52.69182
1016.236	-8.42931
1016.403	35.82884
1016.57	-0
1016.737	35.82884
1016.904	6.32224
1017.071	18.96735
1017.238	-29.50088
1017.405	33.72107
1017.572	69.55627
1017.739	67.44814
1017.906	8.4297
1018.073	44.26014
1018.24	12.64469
1018.407	-25.28676
1018.573	-31.6079
1018.74	18.96735
1018.907	59.01582
1019.074	10.53718
1019.241	25.29023
1019.407	21.07496
1019.574	-0
1019.741	-6.32202
1019.907	-25.28676
1020.074	63.23193
1020.241	-8.42931
1020.407	25.29023
1020.574	-0
1020.74	56.90779
1020.907	37.93663
1021.073	8.4297
1021.24	42.15228
1021.406	67.44814
1021.573	-8.42931
1021.739	10.53718
1021.906	145.464
1022.072	-14.75104
1022.239	48.47593
1022.405	29.5056
1022.571	-12.64382
1022.738	33.72107
1022.904	31.61332
1023.07	-21.07254
1023.237	69.55627
1023.403	75.88082
1023.569	-16.85823
1023.735	44.26014
1023.902	2.10739
1024.068	50.58386
1024.234	-8.42931
1024.4	42.15228
1024.566	-33.71489
1024.732	27.39791
1024.898	35.82884
1025.065	61.12386
1025.231	101.18103
1025.397	40.04444
1025.563	16.85977
1025.729	42.15228
1025.895	4.2148
1026.061	-18.9654
1026.227	35.82884
1026.392	-31.6079
1026.558	42.15228
1026.724	75.88082
1026.89	-12.64382
1027.056	-25.28676
1027.222	42.15228
1027.388	44.26014
1027.553	46.36803
1027.719	-8.42931
1027.885	65.34002
1028.051	63.23193
1028.216	35.82884
1028.382	4.2148
1028.548	-25.28676
1028.713	77.98905
1028.879	25.29023
1029.045	120.15828
1029.21	29.5056
1029.376	40.04444
1029.541	18.96735
1029.707	56.90779
1029.873	8.4297
1030.038	-12.64382
1030.204	40.04444
1030.369	-8.42931
1030.534	80.0973
1030.7	71.66443
1030.865	-42.14263
1031.031	80.0973
1031.196	-2.10736
1031.361	46.36803
1031.527	-25.28676
1031.692	-12.64382
1031.857	31.61332
1032.023	-27.39383
1032.188	25.29023
1032.353	-4.2147
1032.518	46.36803
1032.684	14.75222
1032.849	96.96411
1033.014	16.85977
1033.179	2.10739
1033.344	16.85977
1033.509	-23.17966
1033.674	12.64469
1033.839	8.4297
1034.004	75.88082
1034.17	54.79979
1034.335	63.23193
1034.5	-33.71489
1034.664	-90.59428
1034.829	6.32224
1034.994	12.64469
1035.159	-90.59428
1035.324	94.85568
1035.489	-23.17966
1035.654	44.26014
1035.819	-0
1035.984	35.82884
1036.148	18.96735
1036.313	37.93663
1036.478	-12.64382
1036.643	-14.75104
1036.807	56.90779
1036.972	94.85568
1037.137	-8.42931
1037.301	33.72107
1037.466	75.88082
1037.631	67.44814
1037.795	-14.75104
1037.96	99.07256
1038.124	31.61332
1038.289	-0
1038.454	16.85977
1038.618	61.12386
1038.783	-8.42931
1038.947	-8.42931
1039.111	-42.14263
1039.276	61.12386
1039.44	-0
1039.605	88.53052
1039.769	-21.07254
1039.933	69.55627
1040.098	37.93663
1040.262	54.79979
1040.426	130.70195
1040.591	67.44814
1040.755	73.77262
1040.919	42.15228
1041.083	-29.50088
1041.248	61.12386
1041.412	33.72107
1041.576	73.77262
1041.74	-8.42931
1041.904	77.98905
1042.068	48.47593
1042.232	18.96735
1042.397	46.36803
1042.561	-63.21022
1042.725	88.53052
1042.889	46.36803
1043.053	-4.2147
1043.217	25.29023
1043.381	21.07496
1043.544	14.75222
1043.708	52.69182
1043.872	-50.56997
1044.036	-8.42931
1044.2	35.82884
1044.364	25.29023
1044.528	50.58386
1044.691	35.82884
1044.855	-29.50088
1045.019	50.58386
1045.183	65.34002
1045.346	75.88082
1045.51	31.61332
1045.674	52.69182
1045.837	67.44814
1046.001	-88.48797
1046.165	-0
1046.328	8.4297
1046.492	25.29023
1046.655	-48.46317
1046.819	-23.17966
1046.983	14.75222
1047.146	46.36803
1047.31	-23.17966
1047.473	71.66443
1047.636	84.31387
1047.8	18.96735
1047.963	18.96735
1048.127	16.85977
1048.29	25.29023
