Data from Scatter_Coeff_Baseline_USB4F045381__40__0040.txt Node

Date: Thu Feb 13 19:24:02 EST 2025
User: mmckonesweet
Spectrometer: USB4F04538
Trigger mode: 4
Integration Time (sec): 2.400000E-3
Scans to average: 1
Electric dark correction enabled: true
Nonlinearity correction enabled: true
Boxcar width: 0
XAxis mode: Wavelengths
Number of Pixels in Spectrum: 3648
>>>>>Begin Spectral Data<<<<<
345.52	10.53718
345.736	10.53718
345.952	10.53718
346.168	-58.9969
346.384	-18.9654
346.6	33.72107
346.816	-35.82187
347.032	-4.2147
347.248	16.85977
347.464	-27.39383
347.68	16.85977
347.896	33.72107
348.112	-84.27527
348.328	-29.50088
348.544	37.93663
348.76	29.5056
348.975	12.64469
349.191	0
349.407	-99.01926
349.623	23.18258
349.839	-84.27527
350.055	-58.9969
350.27	42.15228
350.486	-40.03573
350.702	8.4297
350.918	-54.78349
351.133	12.64469
351.349	-25.28676
351.565	-16.85823
351.781	-6.32202
351.996	-21.07254
352.212	-77.95602
352.428	-58.9969
352.644	-2.10736
352.859	-33.71489
353.075	29.5056
353.291	-18.9654
353.506	23.18258
353.722	25.29023
353.938	-58.9969
354.153	23.18258
354.369	-63.21022
354.584	-21.07254
354.8	33.72107
355.016	-4.2147
355.231	-54.78349
355.447	-75.84956
355.662	37.93663
355.878	-2.10736
356.093	-21.07254
356.309	-31.6079
356.524	73.77262
356.74	-4.2147
356.955	-37.92881
357.171	-61.10358
357.386	-14.75104
357.602	-8.42931
357.817	-99.01926
358.033	-88.48797
358.248	-27.39383
358.464	-80.06246
358.679	-42.14263
358.895	21.07496
359.11	-16.85823
359.325	-21.07254
359.541	-4.2147
359.756	48.47593
359.972	-4.2147
360.187	-12.64382
360.402	-16.85823
360.618	21.07496
360.833	2.10739
361.048	-54.78349
361.264	50.58386
361.479	21.07496
361.694	18.96735
361.909	46.36803
362.125	-27.39383
362.34	-4.2147
362.555	-44.2495
362.77	-12.64382
362.986	-65.31684
363.201	-12.64382
363.416	0
363.631	-52.67674
363.847	-27.39383
364.062	-18.9654
364.277	12.64469
364.492	14.75222
364.707	-21.07254
364.922	-42.14263
365.138	10.53718
365.353	-21.07254
365.568	-54.78349
365.783	10.53718
365.998	6.32224
366.213	-12.64382
366.428	-54.78349
366.643	-25.28676
366.858	21.07496
367.073	0
367.288	-54.78349
367.503	-73.74306
367.718	-46.35635
367.933	-10.53658
368.148	-50.56997
368.363	-29.50088
368.578	-46.35635
368.793	-23.17966
369.008	-88.48797
369.223	37.93663
369.438	6.32224
369.653	29.5056
369.868	12.64469
370.083	-12.64382
370.298	-16.85823
370.513	10.53718
370.728	35.82884
370.943	-63.21022
371.157	-21.07254
371.372	-12.64382
371.587	0
371.802	33.72107
372.017	-14.75104
372.232	-27.39383
372.446	-75.84956
372.661	6.32224
372.876	-25.28676
373.091	25.29023
373.306	0
373.52	-21.07254
373.735	-67.42343
373.95	37.93663
374.165	21.07496
374.379	-37.92881
374.594	-29.50088
374.809	-77.95602
375.023	-54.78349
375.238	-33.71489
375.453	-63.21022
375.667	-75.84956
375.882	-4.2147
376.097	-8.42931
376.311	0
376.526	-50.56997
376.741	-16.85823
376.955	29.5056
377.17	-61.10358
377.384	21.07496
377.599	-40.03573
377.813	-8.42931
378.028	-46.35635
378.242	-33.71489
378.457	16.85977
378.672	-10.53658
378.886	-33.71489
379.101	12.64469
379.315	23.18258
379.53	-42.14263
379.744	12.64469
379.958	4.2148
380.173	21.07496
380.387	48.47593
380.602	14.75222
380.816	16.85977
381.031	33.72107
381.245	14.75222
381.459	-25.28676
381.674	4.2148
381.888	0
382.103	0
382.317	-33.71489
382.531	73.77262
382.746	8.4297
382.96	-12.64382
383.174	14.75222
383.388	-117.97394
383.603	-29.50088
383.817	46.36803
384.031	4.2148
384.246	-27.39383
384.46	-12.64382
384.674	-52.67674
384.888	12.64469
385.103	31.61332
385.317	-12.64382
385.531	-63.21022
385.745	-86.38163
385.959	-46.35635
386.174	37.93663
386.388	56.90779
386.602	-4.2147
386.816	-58.9969
387.03	16.85977
387.244	0
387.458	54.79979
387.672	0
387.887	-46.35635
388.101	-42.14263
388.315	-52.67674
388.529	-37.92881
388.743	-25.28676
388.957	37.93663
389.171	-10.53658
389.385	-25.28676
389.599	12.64469
389.813	8.4297
390.027	59.01582
390.241	-46.35635
390.455	-71.63655
390.669	37.93663
390.883	-33.71489
391.097	14.75222
391.311	-58.9969
391.525	-27.39383
391.738	50.58386
391.952	-46.35635
392.166	71.66443
392.38	12.64469
392.594	6.32224
392.808	14.75222
393.022	-42.14263
393.236	-10.53658
393.449	-4.2147
393.663	-2.10736
393.877	-37.92881
394.091	6.32224
394.305	48.47593
394.518	-54.78349
394.732	31.61332
394.946	21.07496
395.16	48.47593
395.373	-8.42931
395.587	-4.2147
395.801	-29.50088
396.015	2.10739
396.228	8.4297
396.442	-21.07254
396.656	-4.2147
396.869	-2.10736
397.083	4.2148
397.297	31.61332
397.51	-48.46317
397.724	27.39791
397.938	-69.53
398.151	-21.07254
398.365	-12.64382
398.578	-52.67674
398.792	-33.71489
399.005	-8.42931
399.219	-29.50088
399.433	23.18258
399.646	-35.82187
399.86	54.79979
400.073	10.53718
400.287	12.64469
400.5	0
400.714	-25.28676
400.927	-35.82187
401.141	-105.33773
401.354	-46.35635
401.567	-46.35635
401.781	35.82884
401.994	-40.03573
402.208	-12.64382
402.421	0
402.635	6.32224
402.848	-71.63655
403.061	-67.42343
403.275	6.32224
403.488	-50.56997
403.701	-27.39383
403.915	-50.56997
404.128	-18.9654
404.341	-4.2147
404.555	-29.50088
404.768	8.4297
404.981	-29.50088
405.195	33.72107
405.408	-61.10358
405.621	-12.64382
405.834	23.18258
406.048	-27.39383
406.261	29.5056
406.474	-37.92881
406.687	-92.70056
406.9	-96.91306
407.114	-63.21022
407.327	18.96735
407.54	-4.2147
407.753	-8.42931
407.966	-46.35635
408.179	54.79979
408.392	-40.03573
408.605	12.64469
408.819	-14.75104
409.032	-12.64382
409.245	-58.9969
409.458	8.4297
409.671	-25.28676
409.884	54.79979
410.097	35.82884
410.31	8.4297
410.523	-21.07254
410.736	-65.31684
410.949	0
411.162	23.18258
411.375	-37.92881
411.588	-67.42343
411.801	-42.14263
412.014	-12.64382
412.227	14.75222
412.44	63.23193
412.653	-75.84956
412.865	40.04444
413.078	-75.84956
413.291	-31.6079
413.504	-21.07254
413.717	-46.35635
413.93	-4.2147
414.143	54.79979
414.356	-27.39383
414.568	4.2148
414.781	42.15228
414.994	-120.07989
415.207	-10.53658
415.42	-10.53658
415.632	-10.53658
415.845	4.2148
416.058	-2.10736
416.271	-37.92881
416.483	-58.9969
416.696	6.32224
416.909	-23.17966
417.121	-12.64382
417.334	-18.9654
417.547	8.4297
417.759	71.66443
417.972	-37.92881
418.185	-80.06246
418.397	84.31387
418.61	-4.2147
418.823	23.18258
419.035	-25.28676
419.248	35.82884
419.46	42.15228
419.673	-44.2495
419.885	75.88082
420.098	29.5056
420.311	29.5056
420.523	6.32224
420.736	-44.2495
420.948	-4.2147
421.161	10.53718
421.373	0
421.586	-40.03573
421.798	-2.10736
422.01	-27.39383
422.223	-12.64382
422.435	21.07496
422.648	-4.2147
422.86	0
423.073	14.75222
423.285	-10.53658
423.497	-42.14263
423.71	-12.64382
423.922	67.44814
424.134	-16.85823
424.347	27.39791
424.559	27.39791
424.771	16.85977
424.984	-10.53658
425.196	-50.56997
425.408	37.93663
425.621	-35.82187
425.833	29.5056
426.045	-58.9969
426.257	-33.71489
426.47	8.4297
426.682	-12.64382
426.894	-12.64382
427.106	-2.10736
427.318	-63.21022
427.531	14.75222
427.743	40.04444
427.955	-12.64382
428.167	40.04444
428.379	-12.64382
428.591	-4.2147
428.804	46.36803
429.016	-54.78349
429.228	54.79979
429.44	-29.50088
429.652	-12.64382
429.864	-61.10358
430.076	-40.03573
430.288	-12.64382
430.5	-8.42931
430.712	-33.71489
430.924	0
431.136	-42.14263
431.348	65.34002
431.56	31.61332
431.772	-46.35635
431.984	-52.67674
432.196	23.18258
432.408	-21.07254
432.62	-35.82187
432.832	-21.07254
433.044	10.53718
433.256	14.75222
433.468	6.32224
433.679	21.07496
433.891	-84.27527
434.103	6.32224
434.315	-61.10358
434.527	-18.9654
434.739	-16.85823
434.95	2.10739
435.162	-82.16888
435.374	37.93663
435.586	21.07496
435.798	-8.42931
436.009	50.58386
436.221	-29.50088
436.433	8.4297
436.645	-8.42931
436.856	-4.2147
437.068	33.72107
437.28	-46.35635
437.491	61.12386
437.703	-58.9969
437.915	42.15228
438.126	-63.21022
438.338	-29.50088
438.55	-27.39383
438.761	-37.92881
438.973	-63.21022
439.184	-4.2147
439.396	12.64469
439.608	-21.07254
439.819	-69.53
440.031	37.93663
440.242	-12.64382
440.454	-14.75104
440.665	23.18258
440.877	61.12386
441.088	-37.92881
441.3	-25.28676
441.511	37.93663
441.723	-8.42931
441.934	4.2148
442.146	14.75222
442.357	-27.39383
442.569	54.79979
442.78	25.29023
442.991	-82.16888
443.203	0
443.414	14.75222
443.626	21.07496
443.837	-10.53658
444.048	40.04444
444.26	35.82884
444.471	63.23193
444.682	50.58386
444.894	63.23193
445.105	8.4297
445.316	-71.63655
445.528	12.64469
445.739	6.32224
445.95	12.64469
446.161	37.93663
446.373	50.58386
446.584	-18.9654
446.795	-4.2147
447.006	-12.64382
447.217	31.61332
447.429	54.79979
447.64	88.53052
447.851	29.5056
448.062	-52.67674
448.273	16.85977
448.484	12.64469
448.695	56.90779
448.907	-8.42931
449.118	31.61332
449.329	-69.53
449.54	33.72107
449.751	21.07496
449.962	-21.07254
450.173	6.32224
450.384	-10.53658
450.595	61.12386
450.806	54.79979
451.017	-16.85823
451.228	-4.2147
451.439	42.15228
451.65	-37.92881
451.861	-12.64382
452.072	-12.64382
452.283	16.85977
452.494	65.34002
452.705	-50.56997
452.915	54.79979
453.126	25.29023
453.337	16.85977
453.548	73.77262
453.759	16.85977
453.97	10.53718
454.181	-23.17966
454.391	86.42218
454.602	65.34002
454.813	8.4297
455.024	-14.75104
455.235	-40.03573
455.445	10.53718
455.656	4.2148
455.867	18.96735
456.078	-21.07254
456.288	16.85977
456.499	-42.14263
456.71	33.72107
456.921	59.01582
457.131	-42.14263
457.342	-2.10736
457.553	52.69182
457.763	-29.50088
457.974	48.47593
458.184	-4.2147
458.395	-10.53658
458.606	6.32224
458.816	25.29023
459.027	0
459.237	-31.6079
459.448	33.72107
459.659	-14.75104
459.869	-46.35635
460.08	21.07496
460.29	-52.67674
460.501	29.5056
460.711	-46.35635
460.922	-21.07254
461.132	21.07496
461.343	8.4297
461.553	14.75222
461.764	31.61332
461.974	12.64469
462.184	88.53052
462.395	8.4297
462.605	8.4297
462.816	-21.07254
463.026	-50.56997
463.236	-21.07254
463.447	12.64469
463.657	-4.2147
463.867	63.23193
464.078	-8.42931
464.288	-4.2147
464.498	-29.50088
464.709	61.12386
464.919	21.07496
465.129	-44.2495
465.339	75.88082
465.55	25.29023
465.76	48.47593
465.97	-18.9654
466.18	16.85977
466.391	18.96735
466.601	25.29023
466.811	50.58386
467.021	63.23193
467.231	6.32224
467.441	-12.64382
467.651	37.93663
467.862	-29.50088
468.072	33.72107
468.282	54.79979
468.492	-44.2495
468.702	4.2148
468.912	18.96735
469.122	-27.39383
469.332	56.90779
469.542	40.04444
469.752	59.01582
469.962	42.15228
470.172	31.61332
470.382	29.5056
470.592	90.63889
470.802	56.90779
471.012	21.07496
471.222	40.04444
471.432	56.90779
471.642	21.07496
471.852	21.07496
472.062	107.50658
472.272	42.15228
472.482	50.58386
472.691	-21.07254
472.901	56.90779
473.111	-16.85823
473.321	73.77262
473.531	118.04961
473.741	67.44814
473.95	80.0973
474.16	90.63889
474.37	-8.42931
474.58	105.39804
474.79	69.55627
474.999	103.28953
475.209	124.37568
475.419	156.00896
475.628	46.36803
475.838	37.93663
476.048	147.57295
476.258	88.53052
476.467	33.72107
476.677	149.68192
476.886	65.34002
477.096	84.31387
477.306	109.61514
477.515	80.0973
477.725	153.89993
477.935	92.74727
478.144	158.11802
478.354	164.4453
478.563	187.64696
478.773	80.0973
478.982	115.94096
479.192	96.96411
479.401	215.07028
479.611	174.9912
479.82	99.07256
480.03	191.86571
480.239	113.83233
480.449	210.85109
480.658	257.26651
480.868	240.38709
481.077	240.38709
481.287	183.42829
481.496	231.94784
481.705	231.94784
481.915	223.5089
482.124	259.37653
482.333	242.49695
482.543	291.029
482.752	295.24965
482.961	261.48656
483.171	234.05762
483.38	291.029
483.589	299.47036
483.799	299.47036
484.008	303.69116
484.217	253.04654
484.426	358.56795
484.636	398.67758
484.845	381.78858
485.054	358.56795
485.263	354.34623
485.472	329.01742
485.682	419.79031
485.891	278.36751
486.1	453.574
486.309	419.79031
486.518	504.25687
486.727	453.574
486.936	367.01157
487.146	468.35561
487.355	443.01617
487.564	443.01617
487.773	599.30939
487.982	506.36885
488.191	614.09776
488.4	459.90888
488.609	516.92892
488.818	675.37029
489.027	592.97171
489.236	620.43582
489.445	639.45067
489.654	552.83581
489.863	738.76589
490.072	688.04861
490.281	645.78918
490.49	571.84695
490.698	654.24069
490.907	679.59635
491.116	726.08599
491.325	647.90204
491.534	878.26818
491.743	747.21937
491.952	764.12683
492.16	838.10432
492.369	823.3079
492.578	692.27481
492.787	890.95213
492.996	869.81237
493.204	857.12892
493.413	907.86452
493.622	926.89155
493.831	806.39826
494.039	1013.57757
494.248	865.58452
494.457	1036.83665
494.665	1077.01306
494.874	992.4336
495.083	909.9786
495.291	1123.53545
495.5	979.74753
495.709	1186.97855
495.917	1083.35688
496.126	1229.27581
496.335	1034.72216
496.543	1246.19506
496.752	1110.84729
496.96	1330.79371
497.169	1212.35674
497.377	1195.43789
497.586	1174.28964
497.794	1248.30998
498.003	1161.60087
498.211	1313.87371
498.42	1250.4249
498.628	1296.95383
498.837	1423.85514
499.045	1472.50133
499.254	1341.36876
499.462	1527.49249
499.671	1315.9887
499.879	1491.53678
500.087	1502.11201
500.296	1542.29771
500.504	1508.45714
500.713	1535.95263
500.921	1364.63399
501.129	1616.32279
501.338	1449.23576
501.546	1582.483
501.754	1495.76687
501.962	1726.29789
502.171	1578.253
502.379	1738.9868
502.587	1684.00067
502.795	1605.74791
503.004	1516.91731
503.212	1749.5608
503.42	1700.91971
503.628	1933.53095
503.837	1753.79037
504.045	1728.41272
504.253	1872.21164
504.461	1855.29519
504.669	1806.6587
504.877	1880.66974
505.085	1918.73016
505.294	1982.1601
505.502	1787.6264
505.71	2001.188
505.918	1829.91994
506.126	2168.18642
506.334	1992.73122
506.542	2138.5952
506.75	1925.07339
506.958	2117.45765
507.166	2130.14027
507.374	2170.30002
507.582	1990.61701
507.79	2227.364
507.998	1774.938
508.206	2092.09159
508.414	2191.43555
508.622	2176.64077
508.83	2119.57144
509.037	2316.11731
509.245	2223.13725
509.453	2322.4562
509.661	2009.64468
509.869	2208.34336
510.077	2244.27063
510.285	2328.795
510.492	2294.98706
510.7	2360.48769
510.908	2206.22992
511.116	2366.82596
511.324	2231.59071
511.531	2497.79572
511.739	2497.79572
511.947	2565.37635
512.155	2390.06549
512.362	2413.30378
512.57	2246.38392
512.778	2508.35597
512.985	2316.11731
513.193	2594.93909
513.401	2580.15801
513.608	2772.26412
513.816	2531.58751
514.024	2618.1653
514.231	2628.72218
514.439	2637.16746
514.646	2649.83501
514.854	2869.3309
515.061	2630.83352
515.269	2765.93266
515.477	2573.82309
515.684	2943.16596
515.892	2635.05616
516.099	2875.66032
516.307	2717.38753
516.514	2919.96258
516.722	2763.82215
516.929	2974.80406
517.136	2632.94484
517.344	2915.74359
517.551	2702.61154
517.759	3038.07007
517.966	3067.58949
518.173	3048.61307
518.381	2873.55053
518.588	3124.5111
518.796	3189.85114
519.003	3156.12919
519.21	2945.27527
519.418	3240.42616
519.625	2987.45835
519.832	3204.60317
520.039	3210.92522
520.247	3299.41816
520.454	3154.02143
520.661	3217.24713
520.868	3400.516
521.076	3354.18446
521.283	3164.56007
521.49	3265.71007
521.697	3392.09272
521.904	3343.65339
522.112	3244.64031
522.319	3632.04302
522.526	3158.23693
522.733	3653.07982
522.94	3322.58994
523.147	3543.66797
523.354	3352.07828
523.561	3625.73161
523.768	3474.20759
523.975	3568.92134
524.183	3299.41816
524.39	3669.90789
524.597	3724.59068
524.804	3745.61905
525.011	3484.73317
525.218	3913.77539
525.425	3657.28695
525.632	3665.70099
525.838	3663.59751
526.045	3730.89939
526.252	3642.56165
526.459	3690.94127
526.666	3779.26041
526.873	3892.7628
527.08	3882.25576
527.287	3983.1026
527.494	3693.0445
527.701	4039.80834
527.907	4111.19416
528.114	4054.50738
528.321	3924.28093
528.528	4086.0019
528.735	4222.4238
528.941	3947.39134
529.148	3842.32443
529.355	4253.89308
529.562	4077.60382
529.768	4165.76704
529.975	3884.35721
530.182	4186.75282
530.388	3943.18963
530.595	4188.85128
530.802	4132.1854
531.008	4369.23917
531.215	4224.5219
531.422	4235.01209
531.628	4216.12936
531.835	4406.97459
532.042	4199.34328
532.248	4526.42326
532.455	4230.81608
532.661	4369.23917
532.868	4367.14256
533.074	4402.78211
533.281	4484.51959
533.487	4689.76262
533.694	4341.98144
533.9	4790.21121
534.107	4524.32829
534.313	4769.28872
534.52	4664.64235
534.726	4813.22332
534.933	4614.39211
535.139	4725.34412
535.345	4752.5491
535.552	4698.13532
535.758	4643.70632
535.965	4886.42533
536.171	4635.33128
536.377	4704.41461
536.584	4997.22067
536.79	4685.57613
536.996	4846.69057
537.203	4965.87005
537.409	4777.65799
537.615	4903.15329
537.821	4794.39543
538.028	5149.71943
538.234	4894.7895
538.44	5049.46017
538.646	4846.69057
538.853	5095.41897
539.059	4754.64163
539.265	5185.21508
539.471	5049.46017
539.677	5007.66973
539.883	5041.10282
540.09	5204.00417
540.296	5178.95163
540.502	5235.31513
540.708	5162.24808
540.914	5247.83804
541.12	5204.00417
541.326	5475.19077
541.532	5268.70768
541.738	5437.66551
541.944	5224.87873
542.15	5587.72081
542.356	5329.21643
542.562	5635.6294
542.768	5441.83536
542.974	5633.54668
543.18	5352.16288
543.386	5554.38574
543.592	5681.44333
543.798	5731.40914
544.004	5535.63211
544.21	5831.29998
544.415	5662.70265
544.621	5879.14507
544.827	5575.22086
545.033	5852.10373
545.239	5456.42909
545.445	5974.79781
545.651	5795.9282
545.856	5789.68541
546.062	5750.14282
546.268	5737.65391
546.474	5739.73546
546.679	5804.25158
546.885	5664.78504
547.091	6001.82107
547.297	5689.77191
547.502	6016.3704
547.708	5641.87743
547.914	5845.86285
548.119	5816.73595
548.325	5954.00798
548.531	5862.50472
548.736	6157.64677
548.942	5750.14282
549.147	5945.69139
549.353	6107.79694
549.559	6070.40068
549.764	5908.26206
549.97	6352.76189
550.175	5845.86285
550.381	6307.11518
550.586	5945.69139
550.792	6358.98556
550.997	6070.40068
551.203	6493.78037
551.408	6348.61265
551.614	6414.98919
551.819	6242.77562
552.025	6236.54802
552.23	6441.94784
552.435	6485.48814
552.641	6383.87816
552.846	6605.68918
553.052	6163.87705
553.257	6551.81558
553.462	6311.26535
553.668	6477.19554
553.873	6510.36371
554.078	6526.94557
554.283	6601.54561
554.489	6854.13516
554.694	6574.61016
554.899	6858.27314
555.105	6402.54541
555.31	6779.63597
555.515	6634.69158
555.72	6587.04239
555.925	6321.64036
556.131	6941.01364
556.336	6587.04239
556.541	6887.23644
556.746	6777.56613
556.951	6821.02806
557.156	6750.65608
557.361	6982.37032
557.567	7238.58166
557.772	6825.16676
557.977	6808.61139
558.182	7062.98995
558.387	6932.74122
558.592	6938.94557
558.797	6986.50549
559.002	7073.32333
559.207	6872.75534
559.412	7085.72265
559.617	6903.7849
559.822	7174.56093
560.027	6891.37369
560.232	7071.2567
560.437	6802.40275
560.642	7281.93848
560.847	7100.18751
561.051	7366.55959
561.256	6860.34209
561.461	7364.4961
561.666	7242.7113
561.871	7360.36905
562.076	6969.96427
562.281	7279.87409
562.485	7224.12723
562.69	7416.07686
562.895	7069.19005
563.1	7383.06674
563.305	7197.2804
563.509	7449.08142
563.714	7211.73685
563.919	7583.10562
564.123	7118.78357
564.328	7477.95586
564.533	7284.00285
564.737	7116.71743
564.942	7325.2856
565.147	7484.14269
565.351	7215.86706
565.556	7644.93243
565.761	7556.30804
565.965	7609.89959
566.17	7356.24192
566.374	7601.65568
566.579	7401.63562
566.784	7300.517
566.988	7531.5686
567.193	7741.75608
567.397	7510.95004
567.602	7727.33849
567.806	7422.26564
568.011	7832.35744
568.215	7770.58817
568.42	7924.97631
568.624	7655.23504
568.828	7679.95914
569.033	7490.32932
569.237	7700.56023
569.442	7486.20492
569.646	7760.29147
569.85	7657.2955
570.055	7840.59193
570.259	7758.23206
570.463	7844.70905
570.668	7646.993
570.872	7904.39796
571.076	8058.68576
571.281	7951.72511
571.485	8034.00741
571.689	8110.08965
571.893	7844.70905
572.098	8268.33513
572.302	8034.00741
572.506	8210.80494
572.71	7904.39796
572.914	8153.25921
573.119	7920.86081
573.323	8290.93205
573.527	7992.87034
573.731	8231.35321
573.935	7980.52763
574.139	8352.54798
574.343	8073.08012
574.547	8299.14852
574.751	8034.00741
574.955	8488.04168
575.159	8097.75387
575.364	8518.82406
575.568	8286.82369
575.772	8420.30531
575.976	8200.53006
576.18	8274.49816
576.383	8268.33513
576.587	8295.04032
576.791	8354.60154
576.995	8650.11454
577.199	8420.30531
577.403	8453.14979
577.607	8578.32459
577.811	8687.0262
578.015	8325.8499
578.219	8590.63307
578.422	8617.29912
578.626	8717.78133
578.83	8516.77204
579.034	8481.88469
579.238	8578.32459
579.442	8617.29912
579.645	8547.55044
579.849	8713.68089
580.053	8894.03154
580.257	8662.41909
580.46	8531.13582
580.664	8904.27454
580.868	8385.40265
581.071	8787.47769
581.275	8516.77204
581.479	8639.86023
581.682	8728.03213
581.886	8830.51492
582.09	8518.82406
582.293	9152.02102
582.497	8918.61399
582.7	9027.15599
582.904	8885.83681
583.107	9336.13245
583.311	8891.98288
583.515	9125.41582
583.718	9104.9483
583.922	9278.86788
584.125	9035.34584
584.329	9078.33796
584.532	9035.34584
584.735	9188.85423
584.939	8775.17987
585.142	8844.8589
585.346	8689.07667
585.549	9137.6955
585.753	9123.36914
585.956	9070.14958
586.159	9012.82309
586.363	9313.63721
586.566	9149.97457
586.769	9211.3607
586.973	8959.57906
587.176	9411.78365
587.379	9332.04255
587.582	9364.75987
587.786	9424.04931
587.989	9607.9648
588.192	9280.91327
588.395	9505.80548
588.599	9354.53616
588.802	9487.41258
589.005	9244.09374
589.208	9532.37071
589.411	9487.41258
589.615	9587.53609
589.818	9493.54369
590.021	9579.36417
590.224	9469.01839
590.427	9338.17737
590.63	9618.17857
590.833	9693.74838
591.036	9697.83263
591.239	9779.50485
591.442	9466.97451
591.645	9722.33686
591.848	9791.75358
592.051	9877.47966
592.254	9812.16695
592.457	9952.97865
592.66	9773.38027
592.863	9901.96802
593.066	9632.47719
593.269	9893.80547
593.472	9714.16903
593.675	9871.35724
593.878	10061.09128
594.081	9922.37337
594.284	9842.78418
594.486	9852.98918
594.689	10165.08657
594.892	9932.57549
595.095	9922.37337
595.298	10103.91729
595.5	10097.79967
595.703	10381.11954
595.906	9844.82521
596.109	10328.14429
596.311	10303.69114
596.514	10246.62629
596.717	10036.61647
596.92	10370.93269
597.122	10313.88018
597.325	10232.35842
597.528	10403.52948
597.73	10448.34461
597.933	10156.93139
598.136	10364.82042
598.338	10203.82067
598.541	10322.03118
598.743	10375.00747
598.946	10248.6645
599.148	10476.86007
599.351	10658.07896
599.554	10517.59209
599.756	10389.26879
599.959	10493.15349
600.161	10411.67815
600.363	10293.50176
600.566	10454.45528
600.768	10354.63303
600.971	10482.9702
601.173	10582.7528
601.376	10776.12427
601.578	10696.75344
601.78	10729.31804
601.983	10704.89488
602.185	10694.71805
602.388	10794.43804
602.59	10649.9364
602.792	10625.50756
602.995	10745.59918
603.197	10883.95841
603.399	10672.32796
603.601	10623.47174
603.804	10698.78882
604.006	11032.43206
604.208	10981.59165
604.41	10940.9143
604.613	10957.18578
604.815	10715.0714
605.017	10713.03612
605.219	10800.54242
605.421	10757.80954
605.623	10668.25688
605.826	11213.36883
606.028	10839.20104
606.23	11054.79966
606.432	10837.16648
606.634	10961.25354
606.836	10816.82025
607.038	11105.6302
607.24	10851.40815
607.442	11144.25691
607.644	10798.50764
607.846	11105.6302
608.048	10865.64925
608.25	11024.29806
608.452	10745.59918
608.654	10940.9143
608.856	10849.37366
609.058	11022.26454
609.26	10881.92411
609.462	11103.59711
609.664	10940.9143
609.866	11150.35551
610.067	10719.14193
610.269	11136.12529
610.471	10883.95841
610.673	11138.15821
610.875	11182.87977
611.077	10861.58043
611.278	10814.78556
611.48	11077.16593
611.682	11195.07568
611.884	11386.09649
612.085	11066.99961
612.287	11323.11016
612.489	10999.895
612.69	11286.53303
612.892	11121.89455
613.094	11327.17409
613.295	11083.2656
613.497	11268.24323
613.699	11160.51963
613.9	11317.0142
614.102	10963.2874
614.304	11355.62043
614.505	10865.64925
614.707	11209.30376
614.908	11062.933
615.11	11367.81112
615.311	11127.9935
615.513	11353.58862
615.714	11302.78994
615.916	11351.55679
616.117	11152.38836
616.319	11457.19871
616.52	11193.04305
616.722	11367.81112
616.923	11347.49311
617.124	11737.43217
617.326	11060.89968
617.527	11406.41263
617.729	11282.4687
617.93	11442.97922
618.131	11412.50728
618.333	11308.88611
618.534	11294.66157
618.735	11233.69356
618.937	11249.9526
619.138	11455.16738
619.339	11477.51145
619.54	11625.76584
619.742	11377.96976
619.943	11477.51145
620.144	11400.31789
620.345	11457.19871
620.546	11398.2863
620.748	11729.31189
620.949	11510.00984
621.15	11737.43217
621.351	11524.22712
621.552	11556.72204
621.753	11522.19611
621.954	11776.00161
622.155	11306.85406
622.356	11629.82691
622.558	11501.88547
622.759	11627.79638
622.96	11434.85358
623.161	11510.00984
623.362	11325.14213
623.563	11759.76223
623.764	11357.65224
623.965	11564.84539
624.166	11617.64359
624.366	11891.69138
624.567	11940.39476
624.768	11855.16073
624.969	11221.49884
625.17	11729.31189
625.371	11325.14213
625.572	11737.43217
625.773	11540.47488
625.973	12031.70103
626.174	11505.94767
626.375	11865.3084
626.576	11505.94767
626.777	11875.45587
626.977	11577.03015
627.178	11623.73529
627.379	11536.413
627.58	11769.91191
627.78	11518.13406
627.981	11562.81457
628.182	11264.17872
628.382	11599.368
628.583	11591.24527
628.784	11635.91845
628.984	11648.10128
629.185	12080.39118
629.386	11834.86475
629.586	11932.27785
629.787	11771.94182
629.987	11780.06137
630.188	11930.24861
630.388	12110.82026
630.589	11706.98039
630.79	11648.10128
630.99	11899.80894
631.191	11920.10226
631.391	11916.04366
631.591	11958.65731
631.792	12015.46998
631.992	12226.43536
632.193	12064.16163
632.393	12102.70601
632.594	11769.91191
632.794	12151.38972
632.994	11810.50846
633.195	12039.81637
633.395	11956.62817
633.595	12127.04841
633.796	11863.27889
633.996	12106.76315
634.196	11845.01285
634.397	12153.41811
634.597	11983.00636
634.797	12155.4465
634.997	12135.1623
635.198	11818.62736
635.398	11916.04366
635.598	12135.1623
635.798	12135.1623
635.998	11989.09345
636.199	11855.16073
636.399	12021.55668
636.599	12009.38321
636.799	12143.27607
636.999	11810.50846
637.199	12080.39118
637.399	12090.5344
637.599	12236.57589
637.799	12202.09734
637.999	12337.97142
638.199	12175.72995
638.399	12297.41533
638.599	12216.29464
638.799	12412.99292
638.999	12226.43536
639.199	12141.24764
639.399	12116.90588
639.599	12400.8279
639.799	12173.70164
639.999	12388.66264
640.199	12250.77234
640.399	12694.75093
640.599	12062.1329
640.799	12469.75983
640.998	12299.4432
641.198	12262.94044
641.398	12094.59163
641.598	12451.51389
641.798	12471.78713
641.997	12183.84313
642.197	12453.54124
642.397	12581.25147
642.597	12597.46685
642.796	12593.41304
642.996	12179.78655
643.196	12447.45916
643.395	12378.52474
643.595	12536.65713
643.795	12380.55233
643.994	12751.49368
644.194	12323.7771
644.394	12737.30841
644.593	12538.68421
644.793	12929.79938
644.992	12621.78918
645.192	12729.20242
645.392	12664.35114
645.591	12927.77342
645.791	12743.38785
645.99	12982.4727
646.19	12483.95075
646.389	12605.57439
646.589	12690.6977
646.788	12842.67802
646.987	12719.06981
647.187	12832.54699
647.386	12615.70868
647.586	12946.00693
647.785	12666.37784
647.984	13138.447
648.184	12828.49453
648.383	12832.54699
648.582	12712.99017
648.782	12668.40452
648.981	12601.52063
649.18	12514.35881
649.38	12775.81061
649.579	13140.47245
649.778	12840.65183
649.977	12873.07032
650.177	12828.49453
650.376	13069.57878
650.575	12798.10042
650.774	13002.73075
650.973	12828.49453
651.173	12929.79938
651.372	12899.40933
651.571	13039.19398
651.77	12816.33704
651.969	13014.88534
652.168	12629.89642
652.367	12767.70506
652.566	13027.03975
652.765	13318.69477
652.964	12941.95508
653.163	12921.69549
653.362	12980.44687
653.561	13010.83383
653.76	13047.2967
653.959	13055.39934
654.158	13000.70497
654.357	12834.5732
654.556	13114.1412
654.755	13148.57422
654.954	12921.69549
655.153	13035.14259
655.352	13132.37061
655.551	13085.78356
655.749	12883.20082
655.948	13261.99135
656.147	12901.43537
656.346	13112.11568
656.545	13168.82832
656.743	13284.26809
656.942	12901.43537
657.141	13008.80807
657.34	13375.39493
657.538	13432.09193
657.737	13067.55316
657.936	13456.38971
658.135	13081.7324
658.333	13264.01653
658.532	13077.68121
658.731	13387.54455
658.929	13223.5121
659.128	12873.07032
659.326	12852.80893
659.525	13203.25923
659.724	13174.90445
659.922	13270.09204
660.121	13097.93695
660.319	13193.13263
660.518	12929.79938
660.716	13020.96257
660.915	13201.23392
661.113	13421.96769
661.312	13257.94098
661.51	13278.19267
661.709	13207.30984
661.907	13257.94098
662.105	13071.6044
662.304	13624.4348
662.502	13110.09016
662.701	13162.75214
662.899	12956.13648
663.097	13371.34502
663.296	13162.75214
663.494	13349.07025
663.692	13067.55316
663.891	13091.86028
664.089	13185.03126
664.287	13294.39371
664.485	13043.24535
664.684	13668.97284
664.882	13225.53737
665.08	13403.74381
665.278	13448.29051
665.476	13440.19125
665.675	13490.81062
665.873	13545.47693
666.071	13393.6193
666.269	13638.60617
666.467	13666.94842
666.665	13549.52618
666.863	13227.56263
667.061	13581.91968
667.259	13235.66362
667.457	13363.24516
667.655	13041.21967
667.853	13450.31531
668.051	13310.59449
668.249	13383.49469
668.447	13426.0174
668.645	13409.81847
668.843	13577.87054
669.041	13662.89956
669.239	13229.58788
669.437	13326.79499
669.635	13557.62464
669.833	13233.63837
670.031	13207.30984
670.229	13296.41882
670.426	13345.02024
670.624	13405.7687
670.822	12984.49853
671.02	13205.28454
671.218	13476.63743
671.415	13288.31835
671.613	13195.15796
671.811	13336.92017
672.009	13251.86538
672.206	13440.19125
672.404	13357.17023
672.602	13535.35374
672.799	13304.51923
672.997	13292.3686
673.195	12994.62759
673.392	13571.79681
673.59	13229.58788
673.788	13381.46975
673.985	13128.31966
674.183	13280.21781
674.38	13428.04224
674.578	13330.84508
674.775	13330.84508
674.973	13029.06547
675.17	13355.14524
675.368	13272.11721
675.565	13156.67591
675.763	13636.58169
675.96	13241.73931
676.158	13616.33679
676.355	13405.7687
676.553	13668.97284
676.75	13069.57878
676.947	13486.76116
677.145	13215.41101
677.342	13294.39371
677.539	13310.59449
677.737	13144.52335
677.934	13205.28454
678.131	13401.71892
678.329	13077.68121
678.526	13229.58788
678.723	13379.44482
678.92	13502.95892
679.118	13106.03911
679.315	13298.44393
679.512	13264.01653
679.709	13371.34502
679.906	12958.16237
680.104	13452.34011
680.301	13087.80914
680.498	13239.71408
680.695	13087.80914
680.892	13180.98055
681.089	13083.75798
681.286	13174.90445
681.483	12814.31077
681.68	13342.99523
681.877	13225.53737
682.075	13176.92982
682.272	13359.19521
682.469	13193.13263
682.665	13065.52754
682.862	13025.01403
683.059	13189.08195
683.256	13043.24535
683.453	13168.82832
683.65	13257.94098
683.847	13043.24535
684.044	13187.05661
684.241	12828.49453
684.438	13162.75214
684.635	13008.80807
684.831	13006.7823
685.028	13014.88534
685.225	13008.80807
685.422	12901.43537
685.619	13018.93683
685.815	12798.10042
686.012	12921.69549
686.209	12672.45788
686.405	13008.80807
686.602	13093.88584
686.799	13195.15796
686.996	12743.38785
687.192	12856.86125
687.389	12840.65183
687.586	12864.96583
687.782	12856.86125
687.979	13043.24535
688.175	12954.11058
688.372	13000.70497
688.568	12631.92322
688.765	12798.10042
688.962	12976.39519
689.158	12939.92914
689.355	12785.94243
689.551	12980.44687
689.748	13012.85959
689.944	13071.6044
690.14	12715.01672
690.337	13128.31966
690.533	13022.9883
690.73	12656.24431
690.926	12680.56453
691.123	12662.32444
691.319	12654.21758
691.515	12832.54699
691.712	12670.43121
691.908	12986.52435
692.104	12496.11415
692.301	12842.67802
692.497	12731.22893
692.693	12792.02145
692.889	12664.35114
693.086	12783.91608
693.282	12662.32444
693.478	12648.13737
693.674	12684.61782
693.87	12826.4683
694.067	12731.22893
694.263	12739.3349
694.459	12512.33165
694.655	12771.75785
694.851	12552.8736
695.047	12496.11415
695.243	12733.25543
695.439	12816.33704
695.635	12575.1706
695.831	13033.11689
696.027	12899.40933
696.224	12814.31077
696.42	12642.05711
696.615	12721.09634
696.811	12583.27841
697.007	12702.85732
697.203	12536.65713
697.399	12885.2269
697.595	12897.38329
697.791	12660.29774
697.987	12502.19576
698.183	12802.15304
698.379	12380.55233
698.575	12702.85732
698.77	12220.35095
698.966	12518.4131
699.162	12406.91044
699.358	12394.7453
699.554	12467.73253
699.749	12848.75658
699.945	12404.88293
700.141	12445.43179
700.337	12344.05459
700.532	12244.68819
700.728	12216.29464
700.924	12508.27731
701.119	12066.19035
701.315	12145.30449
701.511	12346.0823
701.706	12514.35881
701.902	12167.61666
702.097	12315.66591
702.293	12743.38785
702.489	12565.0357
702.684	12862.93969
702.88	12858.8874
703.075	12151.38972
703.271	12335.94368
703.466	12193.98443
703.662	12402.85542
703.857	12224.40723
704.053	12569.08968
704.248	12232.5197
704.443	12589.35921
704.639	12410.96543
704.834	12593.41304
705.03	12183.84313
705.225	12485.978
705.42	12110.82026
705.616	12366.35903
705.811	12269.02439
706.006	12406.91044
706.202	12029.67218
706.397	12295.38745
706.592	12102.70601
706.787	12295.38745
706.983	12376.49714
707.178	12396.77284
707.373	12114.87735
707.568	12283.22003
707.763	12143.27607
707.959	12496.11415
708.154	12285.24795
708.349	12159.50325
708.544	12386.63507
708.739	12301.47106
708.934	12143.27607
709.129	11964.74468
709.324	11924.16082
709.519	12526.52162
709.714	11942.42396
709.909	11976.91921
710.104	11753.67232
710.299	12356.22075
710.494	12560.98169
710.689	12169.645
710.884	12104.73458
711.079	12234.5478
711.274	12058.07542
711.469	12344.05459
711.664	12266.99641
711.859	12437.32223
712.054	12193.98443
712.249	12212.23831
712.443	11916.04366
712.638	12254.8284
712.833	12009.38321
713.028	12297.41533
713.223	11920.10226
713.417	12226.43536
713.612	12037.78755
713.807	12490.03248
714.002	12013.44107
714.196	12275.10828
714.391	12056.04666
714.586	12198.0409
714.78	12035.75871
714.975	12007.35427
715.17	12212.23831
715.364	12238.60398
715.559	12171.67332
715.754	12078.36251
715.948	11875.45587
716.143	11861.24936
716.337	11654.19257
716.532	12025.61445
716.726	11899.80894
716.921	12173.70164
717.115	11914.01435
717.31	11903.86767
717.504	11865.3084
717.699	12222.37909
717.893	11688.70837
718.088	11958.65731
718.282	11773.97172
718.476	11940.39476
718.671	11911.98503
718.865	11956.62817
719.059	11778.03149
719.254	11798.32985
719.448	11830.80545
719.642	11847.04244
719.837	11420.63335
720.031	11800.35964
720.225	11483.60508
720.419	11621.70474
720.614	11672.46596
720.808	11859.21983
721.002	11548.59853
721.196	11660.28378
721.39	11471.41773
721.585	11814.56793
721.779	11656.22298
721.973	11568.90701
722.167	11542.50581
722.361	11631.85743
722.555	11601.39866
722.749	11461.26133
722.943	11528.28912
723.137	11343.42938
723.331	11361.71582
723.525	11806.44896
723.719	11540.47488
723.913	11875.45587
724.107	11479.54267
724.301	11755.7023
724.495	11477.51145
724.689	11327.17409
724.883	11424.69632
725.077	11593.27597
725.271	11388.12815
725.465	11382.03315
725.659	11483.60508
725.853	11605.45994
726.046	11416.57033
726.24	11461.26133
726.434	11136.12529
726.628	11127.9935
726.822	11221.49884
727.015	11570.93781
727.209	11321.07819
727.403	11522.19611
727.596	11382.03315
727.79	11607.49058
727.984	11501.88547
728.177	11493.76095
728.371	11282.4687
728.565	11235.72597
728.758	11260.11416
728.952	11483.60508
729.146	11477.51145
729.339	11475.48022
729.533	11601.39866
729.726	11591.24527
729.92	11566.87621
730.113	11558.75289
730.307	11375.93805
730.5	11329.20603
730.694	11349.52495
730.887	11467.3552
731.081	11550.62942
731.274	11442.97922
731.468	11577.03015
731.661	11723.22159
731.854	11497.82323
732.048	11337.33372
732.241	11438.91642
732.435	11404.38106
732.628	11611.55181
732.821	11461.26133
733.014	11390.1598
733.208	11493.76095
733.401	11193.04305
733.594	11268.24323
733.788	11394.22307
733.981	11461.26133
734.174	11713.07091
734.367	11388.12815
734.56	11235.72597
734.754	11345.46125
734.947	11416.57033
735.14	11507.97876
735.333	11546.56763
735.526	11377.96976
735.719	11418.60185
735.912	11522.19611
736.105	11599.368
736.298	11377.96976
736.491	11026.33158
736.684	11268.24323
736.877	11219.46635
737.07	11266.21098
737.263	11136.12529
737.456	11473.44898
737.649	11168.65074
737.842	11195.07568
738.035	11050.73292
738.228	11111.72941
738.421	10942.94828
738.614	11180.84709
738.807	11056.83301
739	11034.46554
739.192	11097.49777
739.385	11085.2988
739.578	10786.29871
739.771	11085.2988
739.964	10849.37366
740.156	10989.72659
740.349	10778.15918
740.542	11166.61798
740.735	10987.69287
740.927	11062.933
741.12	11107.66328
741.313	11097.49777
741.505	11304.82201
741.698	11016.16389
741.891	10668.25688
742.083	11345.46125
742.276	11367.81112
742.468	11176.78168
742.661	11469.38647
742.854	11172.71623
743.046	11251.98493
743.239	11064.96631
743.431	11117.82853
743.624	10857.51155
743.816	10896.164
744.009	10934.81231
744.201	10879.88979
744.393	11020.231
744.586	10912.43747
744.778	11062.933
744.971	10721.17718
745.163	11156.45402
745.355	10892.09551
745.548	11001.92865
745.74	10910.40333
745.932	10926.67617
746.125	10918.53984
746.317	10735.42355
746.509	10737.4587
746.702	10772.05441
746.894	10649.9364
747.086	10745.59918
747.278	10708.96553
747.471	10804.61195
747.663	10737.4587
747.855	11136.12529
748.047	10778.15918
748.239	10973.45654
748.431	10824.95888
748.623	10857.51155
748.815	10788.33356
749.008	10678.4345
749.2	10859.54599
749.392	10739.49384
749.584	10776.12427
749.776	11046.66614
749.968	10741.52897
750.16	11064.96631
750.352	10788.33356
750.544	10755.77451
750.736	10916.50573
750.928	10989.72659
751.12	10533.88348
751.311	10493.15349
751.503	10631.61494
751.695	10617.36422
751.887	10991.76029
752.079	10904.30083
752.271	10684.54092
752.463	11109.69635
752.654	10723.21241
752.846	10851.40815
753.038	10482.9702
753.23	10370.93269
753.421	10244.58806
753.613	10444.27076
753.805	10340.37014
753.997	10330.18196
754.188	10601.07694
754.38	10603.11289
754.572	10625.50756
754.763	10586.82491
754.955	10535.91984
755.146	10350.55799
755.338	10383.15688
755.53	10246.62629
755.721	10558.31904
755.913	10523.70146
756.104	10546.10148
756.296	10647.90074
756.487	10564.42765
756.679	10753.73947
756.87	10387.2315
757.062	10501.29989
757.253	10381.11954
757.445	10444.27076
757.636	10470.74982
757.827	10552.21032
758.019	10101.87809
758.21	10368.89528
758.401	10340.37014
758.593	10436.12292
758.784	10281.27406
758.975	10319.99345
759.167	10348.52044
759.358	10546.10148
759.549	10354.63303
759.74	10018.25902
759.932	10218.08988
760.123	9844.82521
760.314	10036.61647
760.505	9971.34025
760.696	10150.81486
760.888	10089.64264
761.079	9997.86049
761.27	9997.86049
761.461	9940.73693
761.652	9997.86049
761.843	9767.25556
762.034	10018.25902
762.225	9738.67178
762.416	10032.53714
762.607	9946.85786
762.798	9846.86623
762.989	9748.88062
763.18	9550.76045
763.371	9644.73254
763.562	9738.67178
763.753	9859.112
763.944	9930.5351
764.135	9677.41076
764.326	9938.69659
764.517	9763.17235
764.708	9901.96802
764.899	9605.922
765.089	9771.33872
765.28	9893.80547
765.471	9752.96405
765.662	9681.49525
765.853	9797.87775
766.043	9507.84905
766.234	9620.22128
766.425	9499.67466
766.615	9824.41424
766.806	9693.74838
766.997	9567.10581
767.187	9295.23052
767.378	9720.29492
767.569	9352.49137
767.759	9577.32115
767.95	9816.24944
768.141	9808.08439
768.331	9565.0627
768.522	9793.79499
768.712	9428.13773
768.903	9587.53609
769.093	9309.54695
769.284	9599.79351
769.474	9460.84277
769.665	9315.68231
769.855	9579.36417
770.046	9522.15363
770.236	9233.86513
770.426	9442.44669
770.617	9548.71721
770.807	9162.25302
770.998	9297.27577
771.188	9254.32193
771.378	9194.99256
771.569	9325.90759
771.759	9194.99256
771.949	9407.69497
772.139	9383.16151
772.33	9047.63008
772.52	9321.81753
772.71	9368.84924
772.9	9186.80808
773.09	9149.97457
773.281	9192.94646
773.471	9154.06745
773.661	8871.49536
773.851	8621.40131
774.041	8711.63064
774.231	8883.78809
774.421	8834.61329
774.611	8855.10405
774.802	8959.57906
774.992	8885.83681
775.182	8973.91516
775.372	9098.80772
775.562	8932.95257
775.752	9141.78859
775.942	8746.4824
776.131	8896.08017
776.321	8553.70561
776.511	8978.01103
776.701	8935.00087
776.891	9004.63247
777.081	8912.46862
777.271	9041.48804
777.461	8752.63216
777.651	8793.62636
777.84	8791.57682
778.03	8736.23243
778.22	8668.57112
778.41	8633.70742
778.599	8524.98003
778.789	8545.49868
778.979	8366.92251
779.169	8678.82412
779.358	8713.68089
779.548	8752.63216
779.738	8416.1994
779.927	8547.55044
780.117	8539.34328
780.307	8418.25236
780.496	8155.31469
780.686	8346.38717
780.875	8428.51689
781.065	8641.91113
781.254	8483.93704
781.444	8588.5817
781.633	8457.255
781.823	8451.09715
782.012	8297.09443
782.202	8362.8156
782.391	7826.18136
782.581	8243.68123
782.77	8085.41736
782.96	8011.38303
783.149	7879.70121
783.338	7920.86081
783.528	7883.81754
783.717	8212.85986
783.906	8083.3612
784.096	8268.33513
784.285	8005.21231
784.474	7910.57168
784.663	7850.88457
784.853	7941.43752
785.042	8046.34695
785.231	8140.92595
785.42	7929.09174
785.61	7999.04142
785.799	7990.81327
785.988	8075.13638
786.177	7889.99188
786.366	8225.18894
786.555	8112.14555
786.744	8040.17728
786.933	7752.05373
787.122	7972.29874
787.312	8021.66714
787.501	8114.20142
787.69	7966.12687
787.879	8087.47349
788.068	8009.32614
788.257	7941.43752
788.445	7679.95914
788.634	7828.24007
788.823	7785.00268
789.012	7887.93379
789.201	7663.47674
789.39	7832.35744
789.579	7298.45281
789.768	7714.97973
789.957	7461.4567
790.145	7651.11406
790.334	7535.69206
790.523	7679.95914
790.712	7892.04995
790.9	7747.93473
791.089	7772.64745
791.278	7887.93379
791.467	7422.26564
791.655	7585.16683
791.844	7657.2955
792.033	7630.50789
792.221	7364.4961
792.41	7510.95004
792.599	7304.64532
792.787	7504.76405
792.976	7556.30804
793.164	7539.81542
793.353	7414.01389
793.541	7554.24654
793.73	7510.95004
793.918	7529.50684
794.107	7281.93848
794.295	7655.23504
794.484	7339.73249
794.672	7622.26483
794.861	7434.64261
795.049	7453.2066
795.238	7279.87409
795.426	7473.8312
795.614	7114.65127
795.803	7391.31979
795.991	7180.75742
796.179	7308.77356
796.368	7238.58166
796.556	7211.73685
796.744	6959.62527
796.932	7114.65127
797.121	6812.75037
797.309	7003.04528
797.497	7166.29864
797.685	7376.87673
797.874	7143.57551
798.062	7263.35818
798.25	7056.78965
798.438	7065.05667
798.626	7046.45537
798.814	6941.01364
799.002	6996.84303
799.19	7290.19582
799.378	7042.32151
799.566	6986.50549
799.755	6909.9902
799.943	6953.42159
800.131	6930.67306
800.318	7048.52227
800.506	6920.33191
800.694	6967.89651
800.882	7042.32151
801.07	7007.18
801.258	6965.82873
801.446	7060.92321
801.634	6941.01364
801.822	6874.82414
802.01	6916.1953
802.197	7205.54136
802.385	7098.12116
802.573	7098.12116
802.761	6885.16778
802.949	7151.83878
803.136	6967.89651
803.324	7219.99719
803.512	6843.78981
803.699	6903.7849
803.887	6765.14659
804.075	6794.12424
804.262	6833.4439
804.45	6872.75534
804.638	6736.16445
804.825	7056.78965
805.013	6901.71642
805.201	6957.5574
805.388	6837.58234
805.576	7011.31463
805.763	6856.20416
805.951	6926.53667
806.138	7133.24593
806.326	7139.44374
806.513	6858.27314
806.701	6990.64058
806.888	6876.89291
807.075	7038.18755
807.263	7015.44918
807.45	7228.25718
807.638	6974.09971
807.825	7044.38845
808.012	6810.68089
808.2	6800.33316
808.387	7025.78514
808.574	7069.19005
808.761	7023.71799
808.949	7073.32333
809.136	7056.78965
809.323	7091.92201
809.51	7081.58963
809.698	7232.38704
809.885	6866.54882
810.072	7215.86706
810.259	7093.98842
810.446	7271.61631
810.633	7058.85644
810.82	6986.50549
811.008	6957.5574
811.195	7226.19221
811.382	6943.08169
811.569	7155.97028
811.756	6887.23644
811.943	7077.45653
812.13	6918.26362
812.317	7166.29864
812.504	7114.65127
812.691	7217.93214
812.878	7044.38845
813.064	7197.2804
813.251	6980.3027
813.438	7279.87409
813.625	6765.14659
813.812	7031.98644
813.999	6891.37369
814.186	6959.62527
814.372	6709.24845
814.559	7201.41093
814.746	6806.54186
814.933	6866.54882
815.12	6899.64792
815.306	7013.38192
815.493	7019.58363
815.68	7329.4134
815.866	6934.80936
816.053	6996.84303
816.24	6951.35366
816.426	7108.45265
816.613	6860.34209
816.799	6928.60488
816.986	6928.60488
817.173	7091.92201
817.359	6831.37465
817.546	6638.83441
817.732	6998.91047
817.919	7114.65127
818.105	7034.0535
818.292	6961.69311
818.478	6779.63597
818.665	6969.96427
818.851	6696.82437
819.037	6783.77559
819.224	6852.06613
819.41	6818.95867
819.597	6597.40195
819.783	6758.93651
819.969	6667.83164
820.156	6773.42637
820.342	6551.81558
820.528	6624.3341
820.714	6696.82437
820.901	6895.51085
821.087	6539.38099
821.273	6688.5412
821.459	6582.89841
821.646	6881.03039
821.832	6792.05456
822.018	6969.96427
822.204	6715.46018
822.39	7075.38994
822.576	6655.40481
822.762	6938.94557
822.948	6383.87816
823.134	6771.35646
823.32	6734.09413
823.507	7003.04528
823.693	6715.46018
823.879	6742.37529
824.065	6531.09081
824.25	6727.88302
824.436	6427.43214
824.622	6800.33316
824.808	6856.20416
824.994	6593.2582
825.18	6269.75947
825.366	6659.54718
825.552	6404.61943
825.738	6535.23595
825.923	6473.0491
826.109	6843.78981
826.295	6450.24202
826.481	6564.24934
826.667	6452.31551
826.852	6647.11979
827.038	6495.85337
827.224	6808.61139
827.409	6489.6343
827.595	6576.68226
827.781	6315.41543
827.966	6369.35789
828.152	6120.26067
828.338	6448.16851
828.523	6249.00301
828.709	6298.81457
828.894	6174.26038
829.08	6184.64312
829.266	6199.17797
829.451	6365.20903
829.637	6302.96492
829.822	6522.80025
830.008	6003.89961
830.193	6433.65329
830.378	6099.48732
830.564	6390.10079
830.749	6232.39616
830.935	6444.02142
831.12	6120.26067
831.305	6103.64218
831.491	5700.1821
831.676	6032.9968
831.861	5768.87458
832.047	6028.84034
832.232	5798.00908
832.417	5954.00798
832.602	5945.69139
832.788	5752.22422
832.973	5929.05707
833.158	6082.86695
833.343	5671.03208
833.528	6045.46561
833.714	5895.78391
833.899	6186.7196
834.084	5800.08994
834.269	6251.07876
834.454	5874.98512
834.639	6014.292
834.824	5941.53295
835.009	6037.15316
835.194	5600.2199
835.379	5868.74503
835.564	5510.6243
835.749	5791.76636
835.934	5762.63087
836.119	5639.79477
836.304	5496.03485
836.489	5879.14507
836.674	5687.6898
836.859	5829.21948
837.044	5658.53779
837.228	6026.76208
837.413	5845.86285
837.598	5918.65986
837.783	5754.3056
837.968	5937.37442
838.152	5658.53779
838.337	5608.55216
838.522	5604.38608
838.707	5808.41313
838.891	5708.50983
839.076	5839.62176
839.261	5743.89847
839.445	5804.25158
839.63	5404.30333
839.815	5468.93709
839.999	5412.64444
840.184	5731.40914
840.368	5423.07029
840.553	5712.67356
840.737	5433.49557
840.922	5648.12524
841.106	5266.62082
841.291	5264.53394
841.475	5322.95782
841.66	5533.54825
841.844	5314.61268
842.029	5537.71594
842.213	5427.24047
842.397	5525.2126
842.582	4970.05044
842.766	5412.64444
842.951	5105.86258
843.135	5287.48837
843.319	5028.5661
843.504	5226.96605
843.688	5084.97477
843.872	5331.30259
844.056	5187.30285
844.241	5406.38864
844.425	5103.77391
844.609	5051.54945
844.793	4986.77104
844.977	5128.8365
845.161	4748.36396
845.346	5187.30285
845.53	4944.96676
845.714	5091.24136
845.898	4999.31053
846.082	5193.56602
846.266	4944.96676
846.45	5210.26678
846.634	4917.78905
846.818	5112.12847
847.002	4936.6048
847.186	5011.84919
847.37	4921.97049
847.554	4840.4159
847.738	4616.48613
847.922	4894.7895
848.106	4823.68246
848.29	4875.96962
848.473	4593.45071
848.657	5036.92401
848.841	4629.04976
849.025	4838.3243
849.209	4536.8978
849.392	4942.87631
849.576	4852.96503
849.76	4888.51641
849.944	4786.02689
850.127	4811.13142
850.311	4727.43694
850.495	4880.15197
850.678	4568.31808
850.862	4758.82663
851.046	4597.63917
851.229	4673.01613
851.413	4614.39211
851.596	4919.87978
851.78	4482.42417
851.964	4505.47253
852.147	4467.75565
852.331	4721.1584
852.514	4453.08604
852.698	4616.48613
852.881	4515.94817
853.065	4635.33128
853.248	4503.37733
853.431	4398.58955
853.615	4503.37733
853.798	4494.99633
853.982	4503.37733
854.165	4673.01613
854.348	4075.50425
854.532	4425.83965
854.715	4289.55246
854.898	4520.13828
855.081	4127.98732
855.265	4295.84465
855.448	3991.50439
855.631	4100.69775
855.814	3983.1026
855.997	4226.61998
856.181	4018.80795
856.364	4102.79707
856.547	4010.40723
856.73	4203.53993
856.913	3999.90585
857.096	4379.72194
857.279	4054.50738
857.462	4245.50174
857.645	4104.89638
857.828	4106.99566
858.011	4025.10829
858.194	4031.40843
858.377	4134.28441
858.56	4161.56963
858.743	4058.70692
858.926	4226.61998
859.109	4031.40843
859.292	3966.29803
859.475	3896.96548
859.658	4052.40758
859.841	3817.10095
860.023	3928.483
860.206	3592.06791
860.389	3957.89526
860.572	3854.9351
860.755	4081.8029
860.937	3842.32443
861.12	3964.19737
861.303	3880.15429
861.486	4083.90241
861.668	3659.39049
861.851	3825.50909
862.034	3737.20794
862.216	3865.44344
862.399	3493.1533
862.581	3749.82449
862.764	3543.66797
862.947	3636.25053
863.129	3661.49401
863.312	3598.38022
863.494	3583.65124
863.677	3728.79651
863.859	3371.03327
864.042	3695.14771
864.224	3505.78296
864.406	3680.42482
864.589	3465.78681
864.771	3775.05551
864.954	3497.36326
865.136	3644.66532
865.318	3476.31274
865.501	3522.62147
865.683	3343.65339
865.865	3368.92723
866.048	3314.16408
866.23	3320.4835
866.412	3417.36172
866.594	3331.01553
866.777	3238.31906
866.959	3269.92382
867.141	3006.43878
867.323	3404.72753
867.505	3113.97093
867.687	3341.54712
867.869	3057.04719
868.052	3215.13984
868.234	3238.31906
868.416	3312.05757
868.598	3358.39677
868.78	3461.5763
868.962	3143.48239
869.144	3632.04302
869.326	3046.5045
869.508	3404.72753
869.69	2972.69496
869.872	3290.99155
870.054	3084.45635
870.236	3307.8445
870.417	3046.5045
870.599	3109.75475
870.781	3181.42104
870.963	3189.85114
871.145	2960.04003
871.327	3194.06609
871.508	2879.87985
871.69	3179.31348
871.872	2900.97668
872.054	2979.02222
872.235	2806.0298
872.417	3040.1787
872.599	2694.16783
872.78	3143.48239
872.962	2957.93082
873.144	3116.079
873.325	2945.27527
873.507	3004.3299
873.689	2905.19587
873.87	3181.42104
874.052	2953.71237
874.233	3042.28732
874.415	2835.57188
874.596	3164.56007
874.778	2892.53812
874.959	2884.09933
875.141	2662.5021
875.322	3054.93868
875.503	2736.38429
875.685	3019.09171
875.866	2797.58871
876.048	2795.4784
876.229	3016.98293
876.41	2856.67169
876.592	2981.13127
876.773	3054.93868
876.954	2818.69103
877.136	3248.8544
877.317	2858.7816
877.498	3099.21403
877.679	2894.64778
877.86	3223.56888
878.042	2985.34934
878.223	3166.66775
878.404	2987.45835
878.585	2913.63408
878.766	2795.4784
878.947	2979.02222
879.128	2957.93082
879.309	3082.34805
879.49	2860.89149
879.672	3071.8063
879.853	3059.15568
880.034	3257.28237
880.215	2955.8216
880.396	3177.2059
880.576	2784.92666
880.757	3158.23693
880.938	2890.42844
881.119	3080.23973
881.3	2888.31875
881.481	3269.92382
881.662	2869.3309
881.843	3031.74409
882.023	2856.67169
882.204	3080.23973
882.385	2869.3309
882.566	3097.10584
882.747	2875.66032
882.927	3130.83501
883.108	2917.85309
883.289	3164.56007
883.469	2856.67169
883.65	2998.00319
883.831	2964.2584
884.011	3261.49625
884.192	3198.28097
884.373	3246.74736
884.553	2858.7816
884.734	3231.99765
884.914	2947.38457
885.095	3219.35439
885.275	2974.80406
885.456	3257.28237
885.636	3042.28732
885.817	3116.079
885.997	2860.89149
886.178	3038.07007
886.358	2903.08628
886.538	3012.76531
886.719	2907.30544
886.899	3185.63612
887.08	2983.24032
887.26	3234.10481
887.44	3078.13139
887.621	3191.95862
887.801	3023.30923
887.981	2995.89425
888.161	3033.85277
888.342	3215.13984
888.522	3014.87413
888.702	3021.20048
888.882	2953.71237
889.062	2979.02222
889.242	2991.67633
889.423	3118.18705
889.603	3012.76531
889.783	3242.53324
889.963	2945.27527
890.143	3185.63612
890.323	2928.40038
890.503	3130.83501
890.683	2989.56735
890.863	3132.94294
891.043	3054.93868
891.223	3170.88306
891.403	2871.44072
891.583	3084.45635
891.763	2924.18151
891.943	3147.69805
892.122	3002.22101
892.302	3132.94294
892.482	2953.71237
892.662	3164.56007
892.842	3042.28732
893.022	2991.67633
893.201	2829.24167
893.381	3008.54764
893.561	2869.3309
893.741	2979.02222
893.92	2692.05687
894.1	2837.68193
894.28	2651.94622
894.459	2787.03703
894.639	2609.71958
894.819	3016.98293
894.998	2848.23194
895.178	3105.53851
895.357	2854.56178
895.537	3046.5045
895.716	2881.9896
895.896	2871.44072
896.075	2903.08628
896.255	2983.24032
896.434	2903.08628
896.614	2886.20905
896.793	2751.1588
896.973	2787.03703
897.152	2635.05616
897.331	2938.9473
897.511	2681.50189
897.69	2751.1588
897.87	2508.35597
898.049	2740.60564
898.228	2683.61291
898.407	2812.36047
898.587	2599.16215
898.766	2725.83067
898.945	2489.34732
899.124	2751.1588
899.304	2371.05142
899.483	2656.16861
899.662	2366.82596
899.841	2666.72436
900.02	2375.27684
900.199	2556.92942
900.378	2314.00433
900.557	2611.83103
900.737	2134.36775
900.916	2415.41629
901.095	2125.91276
901.274	2358.37491
901.453	2098.43321
901.632	2248.4972
901.811	2062.4965
901.989	2368.93869
902.168	2104.77476
902.347	2364.71321
902.526	2225.25063
902.705	2349.92371
902.884	2212.57023
903.063	2383.72756
903.242	2096.31934
903.42	2261.17669
903.599	2117.45765
903.778	2180.86789
903.957	1895.47122
904.135	1927.18779
904.314	1817.23206
904.493	2083.63599
904.672	1677.65598
904.85	2039.24223
905.029	1863.75345
905.207	1946.21712
905.386	1800.31464
905.565	1986.38856
905.743	1855.29519
905.922	1829.91994
906.1	1779.16748
906.279	1865.86801
906.457	1639.58735
906.636	2015.98712
906.814	1567.67796
906.993	1713.60886
907.171	1523.26242
907.35	1529.60753
907.528	1442.8906
907.707	1595.17298
907.885	1491.53678
908.063	1580.368
908.242	1409.0498
908.42	1614.20782
908.598	1442.8906
908.777	1667.08145
908.955	1516.91731
909.133	1576.13799
909.311	1377.32418
909.49	1593.05799
909.668	1415.39495
909.846	1447.12071
910.024	1449.23576
910.202	1603.63293
910.38	1398.47458
910.559	1633.24249
910.737	1409.0498
910.915	1588.828
911.093	1366.74902
911.271	1476.73143
911.449	1254.65476
911.627	1533.83759
911.805	1400.58962
911.983	1578.253
912.161	1472.50133
912.339	1535.95263
912.517	1430.20029
912.695	1605.74791
912.872	1277.91913
913.05	1516.91731
913.228	1305.41376
913.406	1563.44793
913.584	1322.33369
913.762	1533.83759
913.939	1341.36876
914.117	1658.62177
914.295	1402.70467
914.473	1402.70467
914.65	1428.08524
914.828	1364.63399
915.006	1370.97908
915.184	1523.26242
915.361	1394.24449
915.539	1366.74902
915.716	1311.75872
915.894	1491.53678
916.072	1172.17484
916.249	1483.07658
916.427	1318.1037
916.604	1540.18269
916.782	1267.34438
916.959	1499.99696
917.137	1425.97019
917.314	1436.54545
917.492	1324.4487
917.669	1381.55426
917.847	1182.7489
918.024	1239.85032
918.201	1074.89846
918.379	1398.47458
918.556	1195.43789
918.733	1280.03409
918.911	1237.73541
919.088	1341.36876
919.265	1098.15931
919.442	1288.49394
919.62	1072.78387
919.797	1309.64373
919.974	920.54914
920.151	1163.71566
920.328	1028.37872
920.506	1186.97855
920.683	1155.25654
920.86	1206.01215
921.037	1176.40445
921.214	1197.55274
921.391	1117.19135
921.568	1079.12766
921.745	937.46239
921.922	1089.70075
922.099	1003.00551
922.276	1220.81625
922.453	990.31924
922.63	1155.25654
922.807	926.89155
922.984	1068.55471
923.161	1064.32556
923.338	1070.66929
923.514	869.81237
923.691	1068.55471
923.868	831.76294
924.045	1060.09644
924.222	859.24281
924.399	935.34821
924.575	890.95213
924.752	871.92631
924.929	882.49613
925.105	865.58452
925.282	766.24031
925.459	874.04026
925.635	882.49613
925.812	914.20679
925.989	749.33277
926.165	787.37564
926.342	833.87673
926.518	909.9786
926.695	770.4673
926.871	814.85301
927.048	728.19928
927.224	867.69844
927.401	624.66125
927.577	884.61012
927.754	704.95367
927.93	759.89991
928.107	685.93553
928.283	791.60282
928.459	833.87673
928.636	764.12683
928.812	626.77399
928.988	814.85301
929.165	713.40647
929.341	757.78646
929.517	628.88674
929.693	671.14428
929.87	666.91831
930.046	742.99261
930.222	633.11228
930.398	614.09776
930.574	535.93795
930.751	514.81688
930.927	542.27454
931.103	533.82578
931.279	590.85917
931.455	557.06041
931.631	445.1277
931.807	550.72353
931.983	470.46733
932.159	500.03297
932.335	443.01617
932.511	481.02615
932.687	375.45547
932.863	493.69724
933.039	426.12445
933.215	470.46733
933.391	396.5664
933.566	447.23925
933.742	449.35082
933.918	409.23374
934.094	324.7962
934.27	333.23872
934.445	261.48656
934.621	291.029
934.797	383.89964
934.973	411.34503
935.148	278.36751
935.324	301.58075
935.5	324.7962
935.675	276.25732
935.851	278.36751
936.027	253.04654
936.202	196.08454
936.378	221.39921
936.553	244.60683
936.729	147.57295
936.904	208.74152
937.08	164.4453
937.255	200.30345
937.431	177.10045
937.606	105.39804
937.782	217.1799
937.957	109.61514
938.133	122.26697
938.308	179.20971
938.483	179.20971
938.659	200.30345
938.834	105.39804
939.009	126.48442
939.185	46.36803
939.36	151.79091
939.535	109.61514
939.71	80.0973
939.886	67.44814
940.061	67.44814
940.236	67.44814
940.411	90.63889
940.586	92.74727
940.761	67.44814
940.937	44.26014
941.112	23.18258
941.287	84.31387
941.462	31.61332
941.637	75.88082
941.812	90.63889
941.987	54.79979
942.162	122.26697
942.337	40.04444
942.512	44.26014
942.687	50.58386
942.862	61.12386
943.037	71.66443
943.212	105.39804
943.386	4.2148
943.561	27.39791
943.736	-33.71489
943.911	29.5056
944.086	94.85568
944.26	54.79979
944.435	96.96411
944.61	35.82884
944.785	73.77262
944.959	-12.64382
945.134	73.77262
945.309	71.66443
945.483	80.0973
945.658	84.31387
945.833	101.18103
946.007	46.36803
946.182	48.47593
946.357	21.07496
946.531	96.96411
946.706	33.72107
946.88	69.55627
947.055	88.53052
947.229	92.74727
947.404	118.04961
947.578	99.07256
947.752	16.85977
947.927	105.39804
948.101	54.79979
948.276	54.79979
948.45	46.36803
948.624	80.0973
948.799	33.72107
948.973	63.23193
949.147	80.0973
949.321	69.55627
949.496	23.18258
949.67	67.44814
949.844	90.63889
950.018	75.88082
950.193	82.20557
950.367	37.93663
950.541	12.64469
950.715	118.04961
950.889	75.88082
951.063	21.07496
951.237	50.58386
951.411	75.88082
951.585	29.5056
951.759	-12.64382
951.933	99.07256
952.107	54.79979
952.281	14.75222
952.455	50.58386
952.629	48.47593
952.803	18.96735
952.977	71.66443
953.151	25.29023
953.325	90.63889
953.499	37.93663
953.672	122.26697
953.846	33.72107
954.02	23.18258
954.194	63.23193
954.368	29.5056
954.541	96.96411
954.715	23.18258
954.889	130.70195
955.062	-46.35635
955.236	63.23193
955.41	52.69182
955.583	65.34002
955.757	69.55627
955.93	63.23193
956.104	37.93663
956.278	84.31387
956.451	103.28953
956.625	-14.75104
956.798	65.34002
956.972	12.64469
957.145	-18.9654
957.319	50.58386
957.492	65.34002
957.665	50.58386
957.839	21.07496
958.012	128.59318
958.185	35.82884
958.359	14.75222
958.532	54.79979
958.705	37.93663
958.879	37.93663
959.052	80.0973
959.225	46.36803
959.398	-27.39383
959.572	96.96411
959.745	54.79979
959.918	99.07256
960.091	69.55627
960.264	54.79979
960.438	52.69182
960.611	96.96411
960.784	73.77262
960.957	82.20557
961.13	40.04444
961.303	63.23193
961.476	92.74727
961.649	42.15228
961.822	71.66443
961.995	90.63889
962.168	65.34002
962.341	63.23193
962.514	16.85977
962.686	21.07496
962.859	96.96411
963.032	109.61514
963.205	71.66443
963.378	44.26014
963.551	21.07496
963.723	96.96411
963.896	65.34002
964.069	88.53052
964.242	65.34002
964.414	37.93663
964.587	105.39804
964.76	71.66443
964.932	168.6636
965.105	80.0973
965.278	44.26014
965.45	31.61332
965.623	80.0973
965.795	67.44814
965.968	33.72107
966.14	151.79091
966.313	37.93663
966.485	46.36803
966.658	-12.64382
966.83	67.44814
967.003	-16.85823
967.175	50.58386
967.348	21.07496
967.52	50.58386
967.692	50.58386
967.865	92.74727
968.037	84.31387
968.209	44.26014
968.382	46.36803
968.554	115.94096
968.726	-31.6079
968.898	46.36803
969.071	69.55627
969.243	56.90779
969.415	48.47593
969.587	40.04444
969.759	4.2148
969.932	46.36803
970.104	4.2148
970.276	82.20557
970.448	77.98905
970.62	42.15228
970.792	-12.64382
970.964	-21.07254
971.136	65.34002
971.308	67.44814
971.48	80.0973
971.652	94.85568
971.824	113.83233
971.996	31.61332
972.168	37.93663
972.339	71.66443
972.511	50.58386
972.683	158.11802
972.855	54.79979
973.027	-40.03573
973.199	6.32224
973.37	-21.07254
973.542	42.15228
973.714	42.15228
973.886	56.90779
974.057	59.01582
974.229	21.07496
974.401	48.47593
974.572	86.42218
974.744	12.64469
974.915	54.79979
975.087	63.23193
975.259	63.23193
975.43	21.07496
975.602	-12.64382
975.773	65.34002
975.945	-8.42931
976.116	84.31387
976.288	-4.2147
976.459	16.85977
976.63	96.96411
976.802	40.04444
976.973	50.58386
977.145	21.07496
977.316	90.63889
977.487	-63.21022
977.659	90.63889
977.83	29.5056
978.001	48.47593
978.172	21.07496
978.344	42.15228
978.515	-29.50088
978.686	63.23193
978.857	75.88082
979.028	50.58386
979.2	10.53718
979.371	33.72107
979.542	6.32224
979.713	50.58386
979.884	75.88082
980.055	-14.75104
980.226	37.93663
980.397	-12.64382
980.568	69.55627
980.739	-16.85823
980.91	59.01582
981.081	105.39804
981.252	67.44814
981.423	29.5056
981.594	31.61332
981.765	67.44814
981.936	71.66443
982.106	82.20557
982.277	0
982.448	25.29023
982.619	2.10739
982.79	52.69182
982.96	12.64469
983.131	-37.92881
983.302	21.07496
983.472	-18.9654
983.643	88.53052
983.814	21.07496
983.984	16.85977
984.155	48.47593
984.326	14.75222
984.496	40.04444
984.667	56.90779
984.837	73.77262
985.008	2.10739
985.178	4.2148
985.349	46.36803
985.519	-35.82187
985.69	33.72107
985.86	40.04444
986.031	-12.64382
986.201	8.4297
986.371	-4.2147
986.542	-27.39383
986.712	52.69182
986.882	-54.78349
987.053	8.4297
987.223	-50.56997
987.393	-16.85823
987.563	-16.85823
987.734	-35.82187
987.904	12.64469
988.074	48.47593
988.244	50.58386
988.414	21.07496
988.585	-6.32202
988.755	59.01582
988.925	25.29023
989.095	40.04444
989.265	63.23193
989.435	-14.75104
989.605	16.85977
989.775	0
989.945	12.64469
990.115	25.29023
990.285	29.5056
990.455	-40.03573
990.625	-2.10736
990.795	-46.35635
990.965	4.2148
991.134	-31.6079
991.304	-46.35635
991.474	16.85977
991.644	40.04444
991.814	23.18258
991.984	67.44814
992.153	25.29023
992.323	-12.64382
992.493	67.44814
992.662	50.58386
992.832	69.55627
993.002	63.23193
993.171	16.85977
993.341	0
993.511	16.85977
993.68	42.15228
993.85	16.85977
994.019	31.61332
994.189	4.2148
994.358	31.61332
994.528	-33.71489
994.697	-25.28676
994.867	29.5056
995.036	-27.39383
995.206	-27.39383
995.375	101.18103
995.544	-12.64382
995.714	16.85977
995.883	-65.31684
996.052	27.39791
996.222	-16.85823
996.391	-4.2147
996.56	-18.9654
996.73	-23.17966
996.899	-42.14263
997.068	-16.85823
997.237	-23.17966
997.406	33.72107
997.576	33.72107
997.745	21.07496
997.914	-10.53658
998.083	-4.2147
998.252	-27.39383
998.421	-27.39383
998.59	-18.9654
998.759	54.79979
998.928	12.64469
999.097	12.64469
999.266	40.04444
999.435	-4.2147
999.604	-12.64382
999.773	-18.9654
999.942	29.5056
1000.111	0
1000.28	-18.9654
1000.448	-52.67674
1000.617	-12.64382
1000.786	-29.50088
1000.955	82.20557
1001.124	40.04444
1001.292	37.93663
1001.461	12.64469
1001.63	12.64469
1001.798	-69.53
1001.967	-65.31684
1002.136	-27.39383
1002.304	14.75222
1002.473	-63.21022
1002.642	-2.10736
1002.81	33.72107
1002.979	-27.39383
1003.147	29.5056
1003.316	-4.2147
1003.484	-63.21022
1003.653	-4.2147
1003.821	54.79979
1003.99	25.29023
1004.158	4.2148
1004.327	14.75222
1004.495	25.29023
1004.663	50.58386
1004.832	-25.28676
1005	8.4297
1005.168	37.93663
1005.337	-2.10736
1005.505	52.69182
1005.673	12.64469
1005.842	-37.92881
1006.01	-46.35635
1006.178	-37.92881
1006.346	25.29023
1006.514	59.01582
1006.683	4.2148
1006.851	-65.31684
1007.019	90.63889
1007.187	-12.64382
1007.355	6.32224
1007.523	-109.5499
1007.691	-21.07254
1007.859	-63.21022
1008.027	-4.2147
1008.195	21.07496
1008.363	-31.6079
1008.531	-40.03573
1008.699	31.61332
1008.867	61.12386
1009.035	-37.92881
1009.203	21.07496
1009.37	-2.10736
1009.538	-12.64382
1009.706	-61.10358
1009.874	0
1010.042	14.75222
1010.209	21.07496
1010.377	8.4297
1010.545	21.07496
1010.713	12.64469
1010.88	-63.21022
1011.048	0
1011.216	-37.92881
1011.383	8.4297
1011.551	-84.27527
1011.718	-12.64382
1011.886	12.64469
1012.054	-6.32202
1012.221	29.5056
1012.389	2.10739
1012.556	-61.10358
1012.724	-23.17966
1012.891	42.15228
1013.058	16.85977
1013.226	-40.03573
1013.393	2.10739
1013.561	48.47593
1013.728	80.0973
1013.895	-27.39383
1014.063	80.0973
1014.23	-58.9969
1014.397	88.53052
1014.565	-16.85823
1014.732	-40.03573
1014.899	18.96735
1015.066	48.47593
1015.233	-40.03573
1015.401	65.34002
1015.568	6.32224
1015.735	6.32224
1015.902	-23.17966
1016.069	-33.71489
1016.236	-21.07254
1016.403	-4.2147
1016.57	8.4297
1016.737	12.64469
1016.904	-69.53
1017.071	-80.06246
1017.238	23.18258
1017.405	14.75222
1017.572	-44.2495
1017.739	-4.2147
1017.906	-52.67674
1018.073	12.64469
1018.24	-46.35635
1018.407	80.0973
1018.573	-33.71489
1018.74	2.10739
1018.907	-96.91306
1019.074	4.2148
1019.241	-50.56997
1019.407	-12.64382
1019.574	33.72107
1019.741	40.04444
1019.907	31.61332
1020.074	65.34002
1020.241	-12.64382
1020.407	-29.50088
1020.574	-42.14263
1020.74	29.5056
1020.907	4.2148
1021.073	-33.71489
1021.24	61.12386
1021.406	-4.2147
1021.573	-56.89021
1021.739	0
1021.906	-46.35635
1022.072	8.4297
1022.239	-8.42931
1022.405	-54.78349
1022.571	-77.95602
1022.738	-44.2495
1022.904	-21.07254
1023.07	14.75222
1023.237	-46.35635
1023.403	0
1023.569	-27.39383
1023.735	-21.07254
1023.902	56.90779
1024.068	-25.28676
1024.234	12.64469
1024.4	-4.2147
1024.566	37.93663
1024.732	4.2148
1024.898	-56.89021
1025.065	46.36803
1025.231	33.72107
1025.397	4.2148
1025.563	12.64469
1025.729	4.2148
1025.895	-27.39383
1026.061	59.01582
1026.227	6.32224
1026.392	-37.92881
1026.558	-27.39383
1026.724	16.85977
1026.89	2.10739
1027.056	46.36803
1027.222	-8.42931
1027.388	-54.78349
1027.553	21.07496
1027.719	-4.2147
1027.885	-71.63655
1028.051	46.36803
1028.216	-37.92881
1028.382	-12.64382
1028.548	-23.17966
1028.713	-23.17966
1028.879	-48.46317
1029.045	16.85977
1029.21	-18.9654
1029.376	31.61332
1029.541	-67.42343
1029.707	-6.32202
1029.873	12.64469
1030.038	-18.9654
1030.204	-21.07254
1030.369	18.96735
1030.534	6.32224
1030.7	-8.42931
1030.865	61.12386
1031.031	-12.64382
1031.196	-2.10736
1031.361	61.12386
1031.527	-25.28676
1031.692	4.2148
1031.857	-10.53658
1032.023	40.04444
1032.188	-16.85823
1032.353	0
1032.518	37.93663
1032.684	-4.2147
1032.849	-84.27527
1033.014	-69.53
1033.179	-31.6079
1033.344	-40.03573
1033.509	40.04444
1033.674	-18.9654
1033.839	-37.92881
1034.004	23.18258
1034.17	54.79979
1034.335	40.04444
1034.5	-8.42931
1034.664	-63.21022
1034.829	-58.9969
1034.994	-52.67674
1035.159	-50.56997
1035.324	-6.32202
1035.489	52.69182
1035.654	-37.92881
1035.819	4.2148
1035.984	-21.07254
1036.148	-35.82187
1036.313	31.61332
1036.478	82.20557
1036.643	-75.84956
1036.807	-27.39383
1036.972	29.5056
1037.137	-6.32202
1037.301	-50.56997
1037.466	-2.10736
1037.631	4.2148
1037.795	40.04444
1037.96	4.2148
1038.124	63.23193
1038.289	-16.85823
1038.454	-14.75104
1038.618	4.2148
1038.783	-65.31684
1038.947	-6.32202
1039.111	-4.2147
1039.276	4.2148
1039.44	-4.2147
1039.605	-27.39383
1039.769	-18.9654
1039.933	-48.46317
1040.098	-44.2495
1040.262	31.61332
1040.426	-12.64382
1040.591	52.69182
1040.755	-4.2147
1040.919	12.64469
1041.083	-10.53658
1041.248	8.4297
1041.412	-4.2147
1041.576	-35.82187
1041.74	-71.63655
1041.904	-50.56997
1042.068	-42.14263
1042.232	4.2148
1042.397	-46.35635
1042.561	-50.56997
1042.725	-2.10736
1042.889	29.5056
1043.053	-12.64382
1043.217	-8.42931
1043.381	21.07496
1043.544	-4.2147
1043.708	21.07496
1043.872	-12.64382
1044.036	-130.6092
1044.2	-67.42343
1044.364	29.5056
1044.528	6.32224
1044.691	18.96735
1044.855	-50.56997
1045.019	-44.2495
1045.183	-4.2147
1045.346	-44.2495
1045.51	-37.92881
1045.674	-8.42931
1045.837	-16.85823
1046.001	-4.2147
1046.165	-54.78349
1046.328	-27.39383
1046.492	-58.9969
1046.655	35.82884
1046.819	21.07496
1046.983	-21.07254
1047.146	-29.50088
1047.31	-8.42931
1047.473	6.32224
1047.636	-75.84956
1047.8	-63.21022
1047.963	0
1048.127	-23.17966
1048.29	-23.17966
