Data from Scatter_Coeff_Baseline_USB4F045381__3__0003.txt Node

Date: Thu Feb 13 19:13:41 EST 2025
User: mmckonesweet
Spectrometer: USB4F04538
Trigger mode: 4
Integration Time (sec): 2.400000E-3
Scans to average: 1
Electric dark correction enabled: true
Nonlinearity correction enabled: true
Boxcar width: 0
XAxis mode: Wavelengths
Number of Pixels in Spectrum: 3648
>>>>>Begin Spectral Data<<<<<
345.52	-81.46674
345.736	-81.46674
345.952	-81.46674
346.168	19.66988
346.384	-22.47729
346.6	0.70246
346.816	-5.61958
347.032	32.3159
347.248	-3.51226
347.464	47.07066
347.68	-1.40491
347.896	21.7775
348.112	-24.5844
348.328	-22.47729
348.544	11.23968
348.76	-51.97449
348.975	-3.51226
349.191	-1.40491
349.407	-28.79853
349.623	32.3159
349.839	-5.61958
350.055	-68.82782
350.27	-14.04863
350.486	51.28651
350.702	-98.3172
350.918	11.23968
351.133	-37.2265
351.349	-45.65407
351.565	-28.79853
351.781	-11.94141
351.996	-1.40491
352.212	44.96277
352.428	11.23968
352.644	-37.2265
352.859	15.45473
353.075	-47.7609
353.291	-22.47729
353.506	2.80986
353.722	40.74705
353.938	68.15085
354.153	23.88513
354.369	9.13219
354.584	-22.47729
354.8	11.23968
355.016	30.20817
355.231	15.45473
355.447	-22.47729
355.662	-14.04863
355.878	19.66988
356.093	-47.7609
356.309	-39.33343
356.524	-51.97449
356.74	21.7775
356.955	-3.51226
357.171	-20.37016
357.386	32.3159
357.602	-22.47729
357.817	15.45473
358.033	11.23968
358.248	-35.11954
358.464	-5.61958
358.679	32.3159
358.895	28.10047
359.11	2.80986
359.325	-37.2265
359.541	19.66988
359.756	19.66988
359.972	-35.11954
360.187	-5.61958
360.402	4.91728
360.618	15.45473
360.833	63.93463
361.048	-3.51226
361.264	23.88513
361.479	-30.90556
361.694	19.66988
361.909	-28.79853
362.125	13.34719
362.34	7.02472
362.555	7.02472
362.77	2.80986
362.986	30.20817
363.201	51.28651
363.416	-64.61464
363.631	-104.63569
363.847	-22.47729
364.062	13.34719
364.277	2.80986
364.492	53.39447
364.707	-45.65407
364.922	17.5623
365.138	74.47535
365.353	19.66988
365.568	-47.7609
365.783	30.20817
365.998	-26.69148
366.213	44.96277
366.428	2.80986
366.643	44.96277
366.858	-9.83416
367.073	11.23968
367.288	-1.40491
367.503	-47.7609
367.718	-43.54722
367.933	57.61047
368.148	7.02472
368.363	30.20817
368.578	-51.97449
368.793	19.66988
369.008	4.91728
369.223	4.91728
369.438	28.10047
369.653	32.3159
369.868	-81.46674
370.083	19.66988
370.298	7.02472
370.513	-3.51226
370.728	70.25899
370.943	-45.65407
371.157	2.80986
371.372	2.80986
371.587	-43.54722
371.802	-1.40491
372.017	-106.7418
372.232	-60.40135
372.446	-43.54722
372.661	21.7775
372.876	23.88513
373.091	-73.04089
373.306	-18.26301
373.52	-33.01256
373.735	44.96277
373.95	-39.33343
374.165	11.23968
374.379	55.50246
374.594	25.99279
374.809	40.74705
375.023	-43.54722
375.238	44.96277
375.453	61.82655
375.667	-3.51226
375.882	-39.33343
376.097	34.42366
376.311	-33.01256
376.526	7.02472
376.741	40.74705
376.955	-54.08124
377.17	-24.5844
377.384	36.53143
377.599	55.50246
377.813	40.74705
378.028	9.13219
378.242	-33.01256
378.457	-3.51226
378.672	23.88513
378.886	-9.83416
379.101	36.53143
379.315	-3.51226
379.53	-33.01256
379.744	-18.26301
379.958	-18.26301
380.173	-5.61958
380.387	-18.26301
380.602	19.66988
380.816	-58.29468
381.031	4.91728
381.245	80.80005
381.459	-18.26301
381.674	-20.37016
381.888	36.53143
382.103	51.28651
382.317	-22.47729
382.531	-22.47729
382.746	34.42366
382.96	-30.90556
383.174	-39.33343
383.388	78.6918
383.603	-56.18797
383.817	-3.51226
384.031	-3.51226
384.246	36.53143
384.46	-9.83416
384.674	-56.18797
384.888	-22.47729
385.103	15.45473
385.317	-20.37016
385.531	-14.04863
385.745	28.10047
385.959	28.10047
386.174	-11.94141
386.388	-3.51226
386.602	21.7775
386.816	-39.33343
387.03	38.63923
387.244	-5.61958
387.458	-11.94141
387.672	-18.26301
387.887	-30.90556
388.101	2.80986
388.315	2.80986
388.529	-41.44034
388.743	-35.11954
388.957	-30.90556
389.171	21.7775
389.385	-22.47729
389.599	28.10047
389.813	-47.7609
390.027	21.7775
390.241	-35.11954
390.455	-35.11954
390.669	-20.37016
390.883	11.23968
391.097	-9.83416
391.311	36.53143
391.525	42.8549
391.738	11.23968
391.952	11.23968
392.166	53.39447
392.38	-30.90556
392.594	11.23968
392.808	-22.47729
393.022	15.45473
393.236	32.3159
393.449	-70.93437
393.663	-11.94141
393.877	-30.90556
394.091	2.80986
394.305	40.74705
394.518	-70.93437
394.732	34.42366
394.946	-64.61464
395.16	51.28651
395.373	55.50246
395.587	15.45473
395.801	76.58356
396.015	11.23968
396.228	23.88513
396.442	7.02472
396.656	-64.61464
396.869	-33.01256
397.083	-20.37016
397.297	66.04272
397.51	-5.61958
397.724	21.7775
397.938	-54.08124
398.151	78.6918
398.365	4.91728
398.578	38.63923
398.792	-24.5844
399.005	-18.26301
399.219	21.7775
399.433	34.42366
399.646	28.10047
399.86	30.20817
400.073	55.50246
400.287	-1.40491
400.5	-35.11954
400.714	4.91728
400.927	-3.51226
401.141	57.61047
401.354	49.17857
401.567	57.61047
401.781	47.07066
401.994	19.66988
402.208	106.10089
402.421	47.07066
402.635	-14.04863
402.848	7.02472
403.061	0.70246
403.275	-9.83416
403.488	21.7775
403.701	36.53143
403.915	7.02472
404.128	19.66988
404.341	55.50246
404.555	-39.33343
404.768	61.82655
404.981	-16.15583
405.195	-1.40491
405.408	17.5623
405.621	4.91728
405.834	15.45473
406.048	-39.33343
406.261	74.47535
406.474	61.82655
406.687	36.53143
406.9	11.23968
407.114	-30.90556
407.327	28.10047
407.54	11.23968
407.753	-26.69148
407.966	70.25899
408.179	-11.94141
408.392	15.45473
408.605	15.45473
408.819	2.80986
409.032	-5.61958
409.245	72.36716
409.458	2.80986
409.671	2.80986
409.884	-26.69148
410.097	-1.40491
410.31	28.10047
410.523	-37.2265
410.736	19.66988
410.949	7.02472
411.162	49.17857
411.375	7.02472
411.588	25.99279
411.801	53.39447
412.014	28.10047
412.227	28.10047
412.44	0.70246
412.653	-5.61958
412.865	36.53143
413.078	28.10047
413.291	40.74705
413.504	-45.65407
413.717	47.07066
413.93	23.88513
414.143	-37.2265
414.356	11.23968
414.568	-14.04863
414.781	-37.2265
414.994	-54.08124
415.207	-49.86771
415.42	61.82655
415.632	87.12496
415.845	13.34719
416.058	36.53143
416.271	49.17857
416.483	-5.61958
416.696	47.07066
416.909	95.55848
417.121	36.53143
417.334	-37.2265
417.547	13.34719
417.759	49.17857
417.972	72.36716
418.185	36.53143
418.397	32.3159
418.61	19.66988
418.823	82.90833
419.035	38.63923
419.248	76.58356
419.46	70.25899
419.673	63.93463
419.885	19.66988
420.098	63.93463
420.311	30.20817
420.523	34.42366
420.736	-14.04863
420.948	40.74705
421.161	66.04272
421.373	-14.04863
421.586	76.58356
421.798	23.88513
422.01	53.39447
422.223	42.8549
422.435	4.91728
422.648	-14.04863
422.86	-1.40491
423.073	7.02472
423.285	44.96277
423.497	78.6918
423.71	112.42659
423.922	32.3159
424.134	40.74705
424.347	40.74705
424.559	-18.26301
424.771	114.5352
424.984	78.6918
425.196	-14.04863
425.408	44.96277
425.621	0.70246
425.833	32.3159
426.045	87.12496
426.257	53.39447
426.47	146.16698
426.682	133.51369
426.894	11.23968
427.106	-3.51226
427.318	103.99236
427.531	63.93463
427.743	106.10089
427.955	-56.18797
428.167	72.36716
428.379	101.88386
428.591	0.70246
428.804	89.23331
429.016	131.40488
429.228	38.63923
429.44	66.04272
429.652	165.14835
429.864	122.96987
430.076	146.16698
430.288	118.75249
430.5	49.17857
430.712	72.36716
430.924	171.47585
431.136	78.6918
431.348	66.04272
431.56	133.51369
431.772	40.74705
431.984	101.88386
432.196	85.01664
432.408	120.86117
432.62	93.45007
432.832	154.60294
433.044	146.16698
433.256	70.25899
433.468	74.47535
433.679	42.8549
433.891	57.61047
434.103	93.45007
434.315	141.94913
434.527	51.28651
434.739	154.60294
434.95	167.25749
435.162	150.38492
435.374	87.12496
435.586	141.94913
435.798	163.03922
436.009	116.64384
436.221	93.45007
436.433	152.49392
436.645	154.60294
436.856	59.7185
437.068	171.47585
437.28	167.25749
437.491	131.40488
437.703	133.51369
437.915	114.5352
438.126	114.5352
438.338	196.78769
438.55	152.49392
438.761	201.00661
438.973	156.71198
439.184	137.73137
439.396	243.20024
439.608	129.2961
439.819	184.1314
440.031	148.27594
440.242	165.14835
440.454	194.67826
440.665	141.94913
440.877	129.2961
441.088	108.20943
441.3	127.18734
441.511	188.35008
441.723	89.23331
441.934	188.35008
442.146	91.34168
442.357	154.60294
442.569	188.35008
442.78	241.09037
442.991	99.77538
443.203	186.24073
443.414	270.63026
443.626	264.29997
443.837	190.45945
444.048	241.09037
444.26	198.89714
444.471	251.6399
444.682	232.6511
444.894	228.43158
445.105	215.77348
445.316	291.73244
445.528	228.43158
445.739	213.66387
445.95	268.52014
446.161	184.1314
446.373	255.85985
446.584	238.98052
446.795	205.22562
447.006	251.6399
447.217	247.42003
447.429	295.95309
447.64	177.80353
447.851	317.05747
448.062	230.54133
448.273	253.74986
448.484	198.89714
448.695	232.6511
448.907	306.50506
449.118	224.21213
449.329	274.85054
449.54	314.94696
449.751	190.45945
449.962	257.96985
450.173	243.20024
450.384	241.09037
450.595	384.60334
450.806	344.49584
451.017	314.94696
451.228	344.49584
451.439	260.07987
451.65	327.61034
451.861	352.93901
452.072	378.27017
452.283	264.29997
452.494	369.82618
452.705	327.61034
452.915	414.16009
453.126	327.61034
453.337	308.61551
453.548	338.16365
453.759	428.93966
453.97	424.71685
454.181	350.82819
454.391	428.93966
454.602	494.4012
454.813	475.39473
455.024	452.16626
455.235	378.27017
455.445	447.94311
455.656	443.72001
455.867	433.16254
456.078	517.63294
456.288	393.0478
456.499	534.52983
456.71	551.42762
456.921	526.08127
457.131	490.17744
457.342	483.8419
457.553	492.28931
457.763	574.66351
457.974	716.2241
458.184	536.64201
458.395	764.83132
458.606	619.02735
458.816	737.357
459.027	648.60633
459.237	697.20543
459.448	644.38061
459.659	686.63989
459.869	581.00085
460.08	802.8755
460.29	796.53458
460.501	864.17524
460.711	760.60439
460.922	741.5837
461.132	900.11294
461.343	785.96659
461.553	855.71966
461.764	974.10935
461.974	872.63096
462.184	849.37807
462.395	982.56663
462.605	1065.03042
462.816	868.40308
463.026	1075.60333
463.236	950.85238
463.447	1071.37415
463.657	1012.16795
463.867	1337.84374
464.078	1043.885
464.288	1219.40633
464.498	1217.29145
464.709	1246.90003
464.919	1213.0617
465.129	1373.79913
465.339	1405.52473
465.55	1312.46372
465.76	1380.14423
465.97	1420.33006
466.18	1449.94078
466.391	1663.55659
466.601	1316.6937
466.811	1490.12675
467.021	1610.68286
467.231	1813.70762
467.441	1447.82572
467.651	1775.64292
467.862	1629.71757
468.072	1796.79014
468.282	1917.32054
468.492	1811.59295
468.702	1932.12136
468.912	2067.42911
469.122	2037.83285
469.332	2149.86823
469.542	1974.40784
469.752	2149.86823
469.962	2215.38813
470.172	2331.61222
470.382	2194.25356
470.592	2437.24492
470.802	2468.92961
471.012	2589.30827
471.222	2344.28948
471.432	2525.95575
471.642	2538.6271
471.852	2572.41531
472.062	2580.86189
472.272	2817.28425
472.482	2863.70465
472.691	3125.21376
472.901	2986.05235
473.111	2969.17975
473.321	3055.64152
473.531	3169.47796
473.741	3163.15494
473.95	3390.68881
474.16	3215.84227
474.37	3399.11214
474.58	3150.50846
474.79	3742.11446
474.999	3687.43584
475.209	3647.47019
475.419	3649.57382
475.628	3790.47309
475.838	3575.93569
476.048	3859.83905
476.258	4065.70596
476.467	4147.57766
476.677	4055.20731
476.886	4369.93804
477.096	4359.45477
477.306	4583.67729
477.515	4441.20986
477.725	4334.2927
477.935	4409.76952
478.144	4633.9354
478.354	4508.26609
478.563	4876.66668
478.773	4753.24661
478.982	4851.57072
479.192	5181.73541
479.401	4968.65699
479.611	4958.20578
479.82	5269.4033
480.03	5256.88184
480.239	5440.44542
480.449	5407.08374
480.658	5473.80109
480.868	5779.97398
481.077	5888.15797
481.287	5700.8761
481.496	5960.93819
481.705	5794.54093
481.915	5929.7502
482.124	6143.80096
482.333	6206.09892
482.543	6174.95258
482.752	6276.67776
482.961	6276.67776
483.171	6492.39836
483.38	6341.00548
483.589	6484.10607
483.799	6540.07183
484.008	6714.07981
484.217	6670.59305
484.426	6908.61126
484.636	6883.78866
484.845	6999.59961
485.054	6757.55646
485.263	7169.05278
485.472	7185.57677
485.682	7179.38044
485.891	7305.33337
486.1	7363.12043
486.309	7455.95667
486.518	7695.06681
486.727	7528.13232
486.936	7744.50217
487.146	7723.90558
487.355	7845.39522
487.564	7707.42679
487.773	7948.29597
487.982	8114.88671
488.191	8271.07427
488.4	8096.38318
488.609	8299.83321
488.818	8225.87387
489.027	8258.74784
489.236	8375.82055
489.445	8615.93171
489.654	8515.40401
489.863	8823.00106
490.072	8480.51644
490.281	8700.0122
490.49	8913.15144
490.698	8861.9339
490.907	8888.56842
491.116	9025.79099
491.325	9033.98088
491.534	9158.8424
491.743	9074.92617
491.952	9375.6647
492.16	9328.63426
492.369	9578.00216
492.578	9385.88757
492.787	9488.09382
492.996	9445.17212
493.204	9692.38695
493.413	9676.04924
493.622	10063.81057
493.831	9694.42909
494.039	9943.45736
494.248	9857.75139
494.457	10059.73162
494.665	9992.42064
494.874	10241.19099
495.083	9800.59956
495.291	10267.68717
495.5	10261.57287
495.709	10367.537
495.917	10375.68659
496.126	10699.46728
496.335	10473.4655
496.543	10670.97094
496.752	10719.82035
496.96	10666.89984
497.169	10579.35933
497.377	10931.42227
497.586	11132.73707
497.794	11006.67379
498.003	10807.32494
498.211	11149.00027
498.42	11118.5062
498.628	11380.67869
498.837	11179.49196
499.045	11522.87311
499.254	11435.53073
499.462	11443.65635
499.671	11396.93189
499.879	11488.34452
500.087	11634.56478
500.296	11553.33726
500.504	11630.50375
500.713	11559.42984
500.921	11811.18504
501.129	11453.81316
501.338	11557.39899
501.546	11823.36332
501.754	11693.44563
501.962	12022.23298
502.171	12032.37731
502.379	12210.88619
502.587	11939.04195
502.795	12334.59185
503.004	12111.49645
503.212	12105.41077
503.42	12352.84129
503.628	12385.28336
503.837	12403.53126
504.045	12693.39986
504.253	12263.61643
504.461	12425.83351
504.669	12533.27864
504.877	12916.29284
505.085	12760.27489
505.294	12819.03872
505.502	12827.14371
505.71	12772.43331
505.918	12486.65375
506.126	12703.53284
506.334	12768.38052
506.542	13126.96934
506.75	12887.92834
506.958	13165.45266
507.166	13133.04577
507.374	13197.85839
507.582	13033.79212
507.79	13317.34473
507.998	13108.73981
508.206	13402.39388
508.414	13222.16193
508.622	13230.26296
508.83	13185.70638
509.037	13455.03984
509.245	13341.64522
509.453	13645.35438
509.661	13473.26284
509.869	13789.08285
510.077	13475.2876
510.285	13740.50035
510.492	13738.47604
510.7	14072.44885
510.908	13536.02862
511.116	13649.40329
511.324	13762.76755
511.531	13851.83273
511.739	13766.81609
511.947	14153.40172
512.155	13940.89246
512.362	14033.99496
512.57	13880.17049
512.778	14497.41735
512.985	13922.67612
513.193	14127.09242
513.401	14313.27402
513.608	14236.37492
513.816	14175.66315
514.024	14161.49682
514.231	14072.44885
514.439	14558.12135
514.646	14193.87687
514.854	14297.08495
515.061	14529.79296
515.269	14695.71322
515.477	14598.59007
515.684	14691.66647
515.892	14497.41735
516.099	14855.55734
516.307	14669.40926
516.514	14802.95092
516.722	14713.92356
516.929	14889.95362
517.136	14730.11047
517.344	14752.36738
517.551	14392.19416
517.759	15242.00431
517.966	15219.74831
518.173	14885.907
518.381	15296.63275
518.588	15375.54083
518.796	15324.95867
519.003	15559.66233
519.21	15191.42251
519.418	15569.77904
519.625	15130.72439
519.832	15496.9391
520.039	15563.70901
520.247	15407.91354
520.454	15620.36287
520.661	15755.93017
520.868	15460.51943
521.076	15842.93841
521.283	15517.17233
521.49	15814.60993
521.697	15982.5609
521.904	15962.32537
522.112	15907.69012
522.319	15891.50208
522.526	16053.38634
522.733	16112.07165
522.94	16166.71089
523.147	16010.89087
523.354	16217.30384
523.561	16445.99805
523.768	16365.04158
523.975	16407.54333
524.183	16182.90052
524.39	16190.99538
524.597	16427.78257
524.804	16421.71078
525.011	16324.56452
525.218	16522.90969
525.425	16561.36666
525.632	16462.18972
525.838	16480.40552
526.045	16723.29955
526.252	16968.2523
526.459	16749.61505
526.666	16777.95527
526.873	17478.53065
527.08	17300.31702
527.287	17478.53065
527.494	16816.41776
527.701	17219.31855
527.907	17170.72171
528.114	17269.94204
528.321	17332.71774
528.528	17288.16695
528.735	17604.10484
528.941	17138.32473
529.148	17207.16918
529.355	17310.44216
529.562	17276.01698
529.768	17993.06081
529.975	17178.82107
530.182	17581.82464
530.388	17450.17688
530.595	17905.93987
530.802	17668.92219
531.008	17867.44664
531.215	17553.4686
531.422	17683.10144
531.628	17875.55037
531.835	17713.48608
532.042	18254.46339
532.248	18100.45146
532.455	17731.71723
532.661	18384.17425
532.868	18203.79923
533.074	18619.31485
533.281	18609.17841
533.487	18323.37037
533.694	18562.55203
533.9	19012.68504
534.107	18276.75635
534.313	18388.22796
534.52	18355.79868
534.726	18380.12055
534.933	18511.8735
535.139	18815.98123
535.345	18467.27839
535.552	18609.17841
535.758	18858.56339
535.965	19000.51669
536.171	18749.06995
536.377	18909.25874
536.584	18830.17509
536.79	18891.00813
536.996	19402.14964
537.203	19245.93994
537.409	19195.22775
537.615	19282.4543
537.821	19270.2827
538.028	19357.5158
538.234	19150.60315
538.44	19310.85528
538.646	19039.05028
538.853	19822.21222
539.059	19398.09193
539.265	19615.2025
539.471	19481.2782
539.677	19556.35474
539.883	19781.61864
540.09	19781.61864
540.296	19917.61375
540.502	19862.80748
540.708	19440.69866
540.914	19672.02436
541.12	19538.09235
541.326	19903.40442
541.532	19698.40705
541.738	20157.1734
541.944	19862.80748
542.15	20220.11828
542.356	20307.4356
542.562	20408.97714
542.768	20071.89969
542.974	20226.20993
543.18	20025.20533
543.386	20514.59146
543.592	20748.20168
543.798	20685.22307
544.004	20486.15572
544.21	20703.50677
544.415	20551.15289
544.621	20992.02737
544.827	20740.07519
545.033	21030.63854
545.239	20721.79081
545.445	21378.20521
545.651	20774.61326
545.856	21042.83185
546.062	20750.23332
546.268	21026.57414
546.474	20882.29846
546.679	21077.38036
546.885	20742.1068
547.091	21055.02531
547.297	20421.16283
547.502	20853.85218
547.708	20654.75098
547.914	21237.94476
548.119	21274.53259
548.325	21073.31577
548.531	20819.31136
548.736	21237.94476
548.942	21205.42334
549.147	21140.38362
549.353	21083.47728
549.559	21298.92521
549.764	21044.86408
549.97	21298.92521
550.175	21146.48091
550.381	21614.04827
550.586	21073.31577
550.792	21524.58427
550.997	21685.21825
551.203	21750.29214
551.408	21801.13388
551.614	21831.64009
551.819	21843.84282
552.025	22161.1619
552.23	22006.55902
552.435	21837.74144
552.641	22305.61299
552.846	21738.09048
553.052	21980.11598
553.257	21967.91171
553.462	22207.95387
553.668	22327.9944
553.873	22230.33333
554.078	22435.83829
554.283	22317.82098
554.489	22602.71103
554.694	22423.62903
554.899	22242.5405
555.105	22743.14678
555.31	22220.16079
555.515	22623.063
555.72	22718.72197
555.925	22157.09312
556.131	22543.69232
556.336	22423.62903
556.541	22606.7814
556.746	22195.74708
556.951	22859.17139
557.156	22806.2465
557.361	22903.9558
557.567	23070.89388
557.772	22621.02779
557.977	22956.88494
558.182	22844.92215
558.387	22999.63706
558.592	23077.00179
558.797	22794.03339
559.002	22855.10016
559.207	23042.39066
559.412	22991.49369
559.617	22871.38516
559.822	23050.53437
560.027	22875.45644
560.232	23400.76325
560.437	23003.70877
560.642	23237.85421
560.847	23510.73825
561.051	23573.87612
561.256	23227.67308
561.461	23419.09178
561.666	23404.83624
561.871	23577.94963
562.076	23447.60334
562.281	23549.4353
562.485	23294.87006
562.69	23588.13346
562.895	23476.11551
563.1	23522.95825
563.305	23341.70637
563.509	23879.42276
563.714	23315.23346
563.919	23958.87567
564.123	23604.42775
564.328	23531.10498
564.533	24064.81961
564.737	23404.83624
564.942	23508.70159
565.147	23592.20701
565.351	23720.53016
565.556	23812.19679
565.761	23649.23805
565.965	24077.0444
566.17	23767.38125
566.374	23893.68321
566.579	23820.34523
566.784	24060.74471
566.988	24272.65448
567.193	24284.88094
567.397	24207.44833
567.602	24521.27773
567.806	24111.68185
568.011	24270.61674
568.215	24502.93535
568.42	24368.43096
568.624	24297.10749
568.828	24865.74413
569.033	24590.573
569.237	24557.9631
569.442	24429.56792
569.646	24193.18486
569.85	24331.74992
570.055	24912.62949
570.259	24659.87117
570.463	24875.93649
570.668	24604.84003
570.872	24535.54416
571.076	24945.24613
571.281	25053.29293
571.485	24594.64928
571.689	24521.27773
571.893	24602.80188
572.098	24657.83294
572.302	24786.24572
572.506	25130.76437
572.71	24890.2059
572.914	25140.95822
573.119	24961.55466
573.323	25075.71854
573.527	24969.70899
573.731	25249.0164
573.935	25096.10569
574.139	25257.17198
574.343	24920.78359
574.547	25552.83458
574.751	25326.49582
574.955	25320.37891
575.159	25249.0164
575.364	25253.09419
575.568	25039.02223
575.772	25512.05096
575.976	25406.01734
576.18	25140.95822
576.383	25424.36892
576.587	25520.20762
576.791	25153.19091
576.995	25391.74402
577.199	25771.0404
577.403	25507.97264
577.607	25607.89374
577.811	26079.01245
578.015	25830.18409
578.219	25968.87198
578.422	25491.65945
578.626	25616.05078
578.83	25846.49987
579.034	26097.3697
579.238	25760.84337
579.442	26003.54527
579.645	25736.3707
579.849	25715.97702
580.053	26338.06648
580.257	26091.2506
580.46	26042.29838
580.664	25848.53935
580.868	26250.35221
581.071	26378.86485
581.275	26323.7872
581.479	26411.50402
581.682	26038.21908
581.886	26176.9194
582.09	26605.30749
582.293	26346.2261
582.497	26395.18439
582.7	26809.32613
582.904	26684.87298
583.107	26533.90456
583.311	26446.18359
583.515	26311.54789
583.718	26207.51614
583.922	26711.39531
584.125	26621.62843
584.329	26333.98668
584.532	26462.50355
584.735	27286.78564
584.939	26331.94678
585.142	26491.06372
585.346	26429.86374
585.549	26825.64826
585.753	26460.46355
585.956	27290.86681
586.159	26935.82508
586.363	27184.7581
586.566	27099.05754
586.769	26909.30065
586.973	26837.88992
587.176	27301.06975
587.379	26897.05868
587.582	27515.33903
587.786	27070.49122
587.989	26980.71312
588.192	26929.70403
588.395	27339.84125
588.599	27058.2486
588.802	27321.47574
589.005	27021.52101
589.208	27233.7309
589.411	27190.87966
589.615	27325.55696
589.818	27223.52817
590.021	28023.51695
590.224	27670.43775
590.427	27274.54216
590.63	27758.19405
590.833	27335.76002
591.036	27425.5483
591.239	27929.63124
591.442	27713.2952
591.645	27917.38545
591.848	27560.2353
592.051	27864.32087
592.254	27472.48406
592.457	27709.21352
592.66	28050.0503
592.863	28201.08989
593.066	27901.05781
593.269	27876.56647
593.472	27827.58431
593.675	27831.66613
593.878	27639.8256
594.081	28358.25909
594.284	28333.76476
594.486	28411.33065
594.689	28370.50631
594.892	28250.077
595.095	28201.08989
595.298	28384.79478
595.5	28205.17212
595.703	28613.41744
595.906	28301.10591
596.109	28286.81774
596.311	28521.55852
596.514	28413.37188
596.717	28770.6032
596.92	28878.79958
597.122	28827.76319
597.325	28425.61928
597.528	28615.45878
597.73	29427.99228
597.933	28674.65791
598.136	28903.29728
598.338	28717.52679
598.541	28705.27849
598.743	28823.6803
598.946	28999.24805
599.148	28913.5047
599.351	28595.04549
599.554	28641.99621
599.756	28595.04549
599.959	28862.46787
600.161	28864.50933
600.363	29070.70223
600.566	29072.7438
600.768	29001.28958
600.971	28927.79513
601.173	28544.01273
601.376	29515.78847
601.578	28901.2558
601.78	28978.8328
601.983	29356.53171
602.185	29107.4506
602.388	29013.53878
602.59	29207.48951
602.792	29319.78106
602.995	29436.15929
603.197	29287.1141
603.399	29534.16466
603.601	28919.62917
603.804	29332.03124
604.006	29773.06309
604.208	29389.19924
604.41	29438.20104
604.613	29258.53073
604.815	29476.99456
605.017	29554.58276
605.219	29246.28078
605.421	29160.53216
605.623	29250.36409
605.826	29805.73412
606.028	28929.83663
606.23	29346.32316
606.432	29332.03124
606.634	29513.74667
606.836	29628.08878
607.038	29583.16827
607.24	29568.87549
607.442	29685.2611
607.644	30032.39719
607.846	29552.54094
608.048	29928.25299
608.25	29681.17733
608.452	29946.63116
608.654	30191.68234
608.856	29740.39235
609.058	29564.79184
609.26	29540.29008
609.462	29850.65724
609.664	30038.52342
609.866	29626.04693
610.067	29050.28662
610.269	29436.15929
610.471	29575.00096
610.673	29519.87206
610.875	29722.01517
611.077	29668.92606
611.278	29738.35043
611.48	29507.6213
611.682	29332.03124
611.884	29707.72188
612.085	29419.8253
612.287	29479.03634
612.489	29768.97923
612.69	29654.63296
612.892	30598.09671
613.094	29926.21097
613.295	30101.82831
613.497	30332.59439
613.699	30312.172
613.9	30395.90458
614.102	30185.55586
614.304	30295.83418
614.505	29869.03503
614.707	30011.97653
614.908	29476.99456
615.11	29575.00096
615.311	29413.70007
615.513	29713.84757
615.714	29726.09898
615.916	29771.02116
616.117	29969.0935
616.319	29969.0935
616.52	29601.54478
616.722	29570.91731
616.923	29897.62289
617.124	30081.40726
617.326	29425.95053
617.527	29985.42983
617.729	29474.95279
617.93	29944.58914
618.131	30028.31305
618.333	29658.7167
618.534	29668.92606
618.735	29450.45159
618.937	29432.07578
619.138	29695.47053
619.339	29656.67483
619.54	30109.99677
619.742	29779.18889
619.943	29636.2562
620.144	29468.82747
620.345	30095.70199
620.546	29820.02778
620.748	29967.05146
620.949	30236.6102
621.15	30361.18594
621.351	29875.16099
621.552	30189.64018
621.753	30250.90555
621.954	30518.44379
622.155	29744.47617
622.356	30040.56549
622.558	29985.42983
622.759	29958.88333
622.96	29907.8329
623.161	30212.10402
623.362	30109.99677
623.563	30365.27047
623.764	30095.70199
623.965	30312.172
624.166	30014.01859
624.366	29295.28082
624.567	29901.70689
624.768	29577.04278
624.969	29497.41236
625.17	30058.94423
625.371	29952.75724
625.572	29291.19746
625.773	29681.17733
625.973	30077.32306
626.174	29922.12695
626.375	30130.41799
626.576	30224.35709
626.777	30065.0705
626.977	29601.54478
627.178	29967.05146
627.379	30083.44936
627.58	30440.8351
627.78	29838.40543
627.981	30242.73677
628.182	30205.97751
628.382	30277.45421
628.583	30402.03143
628.784	30440.8351
628.984	30097.74409
629.185	30828.8972
629.386	30099.7862
629.586	30879.96158
629.787	30579.7151
629.987	30712.47359
630.188	30393.86229
630.388	30099.7862
630.589	29834.3215
630.79	30165.13432
630.99	30093.65988
631.191	30203.93534
631.391	29842.48936
631.591	29918.04293
631.792	29801.65022
631.992	30422.45436
632.193	30379.56635
632.393	30432.66587
632.594	30248.86336
632.794	30659.36953
632.994	30630.7754
633.195	30718.60104
633.395	29995.64008
633.595	30569.50313
633.796	30561.33358
633.996	30677.7516
634.196	30510.27437
634.397	30446.96204
634.597	30446.96204
634.797	30867.70605
634.997	30542.95217
635.198	30495.97793
635.398	30399.98914
635.598	30536.82506
635.798	30690.00638
635.998	30412.24288
636.199	30591.9695
636.399	31123.04018
636.599	30385.69318
636.799	30257.03215
636.999	29799.60828
637.199	30722.68601
637.399	30332.59439
637.599	30971.87967
637.799	30279.49643
637.999	30481.68155
638.199	30240.69458
638.399	30369.355
638.599	30287.66529
638.799	30528.65559
638.999	30704.30368
639.199	30818.68442
639.399	30728.81348
639.599	31339.5817
639.799	31076.057
639.999	31092.39889
640.199	30722.68601
640.399	30730.85598
640.599	29873.119
640.799	31076.057
640.998	30894.25976
641.198	31049.50164
641.398	30908.55801
641.598	30739.02596
641.798	31131.21125
641.997	30943.28262
642.197	30861.5783
642.397	30763.53604
642.597	31035.2027
642.796	31617.43489
642.996	30600.13912
643.196	30792.13137
643.395	30669.58178
643.595	30687.96391
643.795	30998.43432
643.994	31327.32417
644.194	30894.25976
644.394	31214.96608
644.593	30988.22096
644.793	30902.43018
644.992	30563.37597
645.192	30506.18966
645.392	31037.2454
645.591	30945.32526
645.791	30849.32285
645.99	31012.73308
646.19	31029.0746
646.389	31053.58706
646.589	30495.97793
646.788	30890.17456
646.987	30724.7285
647.187	30857.49315
647.386	30457.17362
647.586	30779.8762
647.785	31251.7373
647.984	31290.55191
648.184	31027.0319
648.383	30704.30368
648.582	30734.94096
648.782	30861.5783
648.981	30783.96125
649.18	30953.49582
649.38	31221.09458
649.579	31523.45169
649.778	31533.66708
649.977	31829.9323
650.177	31594.96032
650.376	31468.2893
650.575	31094.44163
650.774	31000.47699
650.973	31214.96608
651.173	31445.81608
651.372	31051.54435
651.571	31045.41622
651.77	31654.21191
651.969	31451.94512
652.168	31701.2056
652.367	31212.92325
652.566	31167.98135
652.765	31372.26874
652.964	31386.56945
653.163	31406.99917
653.362	31327.32417
653.561	31071.97154
653.76	31496.89187
653.959	31607.21915
654.158	31930.05812
654.357	31319.15251
654.556	31421.30007
654.755	31249.69444
654.954	31521.40862
655.153	31349.79636
655.352	31351.83929
655.551	31300.76638
655.749	31020.90383
655.948	31149.59624
656.147	31143.46789
656.346	31588.83092
656.545	31284.42325
656.743	31112.82638
656.942	31327.32417
657.141	31249.69444
657.34	31570.44284
657.538	31752.28677
657.737	31740.02719
657.936	32103.75671
658.135	31848.32242
658.333	31276.25173
658.532	31255.82302
658.731	31251.7373
658.929	31674.64384
659.128	31078.09973
659.326	31331.41001
659.525	31404.95619
659.724	31486.67663
659.922	31317.1096
660.121	31335.49585
660.319	31257.86588
660.518	31065.84337
660.716	31143.46789
660.915	31670.55744
661.113	31901.45028
661.312	31217.00891
661.51	31337.53878
661.709	31456.03115
661.907	30982.09297
662.105	30986.1783
662.304	31321.19543
662.502	31176.15255
662.701	31435.60104
662.899	31576.57218
663.097	31897.36348
663.296	31172.06694
663.494	31505.06409
663.692	31282.38037
663.891	31617.43489
664.089	31366.13989
664.287	31172.06694
664.485	31037.2454
664.684	31654.21191
664.882	31043.37351
665.08	31390.65538
665.278	30751.28097
665.476	31574.52907
665.675	31488.71967
665.873	31411.08513
666.071	31261.95162
666.269	31478.50446
666.467	31276.25173
666.665	31797.23912
666.863	31165.93855
667.061	31496.89187
667.259	31568.39973
667.457	31693.03272
667.655	31306.89507
667.853	31233.35163
668.051	31496.89187
668.249	31221.09458
668.447	31055.62977
668.645	31102.61261
668.843	31280.33749
669.041	31141.42511
669.239	31047.45893
669.437	31308.93798
669.635	31360.01105
669.833	31470.33233
670.031	31178.19535
670.229	31141.42511
670.426	31012.73308
670.624	30953.49582
670.822	30591.9695
671.02	30851.36542
671.218	30965.75171
671.415	30751.28097
671.613	30777.83367
671.811	30849.32285
672.009	30886.08936
672.206	31012.73308
672.404	31635.82333
672.602	31302.80927
672.799	31676.68704
672.997	31558.18419
673.195	31778.84942
673.392	31693.03272
673.59	31464.20324
673.788	31210.88042
673.985	31106.69811
674.183	31374.31169
674.38	31599.04659
674.578	31245.60873
674.775	30824.81208
674.973	30438.79279
675.17	30628.73298
675.368	30495.97793
675.565	30514.35908
675.763	31157.76738
675.96	30218.23055
676.158	30732.89847
676.355	30755.36599
676.553	31484.63358
676.75	30724.7285
676.947	30551.12168
677.145	30112.03888
677.342	30669.58178
677.539	30404.07372
677.737	31014.77576
677.934	30428.58126
678.131	30702.2612
678.329	30612.3936
678.526	30218.23055
678.723	30855.45057
678.92	30875.8764
679.118	30502.10497
679.315	30645.07244
679.512	30205.97751
679.709	30751.28097
679.906	30408.15829
680.104	30790.08884
680.301	30563.37597
680.498	30485.76622
680.695	30169.21862
680.892	30367.31273
681.089	30402.03143
681.286	30681.83652
681.483	30040.56549
681.68	30220.27273
681.877	30105.91254
682.075	30330.55215
682.272	30201.89317
682.469	30440.8351
682.665	30038.52342
682.862	30375.48181
683.059	30214.1462
683.256	30167.17647
683.453	29756.72768
683.65	29936.42105
683.847	29854.74119
684.044	30065.0705
684.241	29773.06309
684.438	30369.355
684.635	29272.82239
684.831	29895.5809
685.028	29691.38675
685.225	29317.73937
685.422	29376.94889
685.619	29726.09898
685.815	29270.78072
686.012	29187.0732
686.209	29033.95421
686.405	29160.53216
686.602	29283.03075
686.799	28866.55079
686.996	28878.79958
687.192	28684.86474
687.389	28478.69176
687.586	28962.50068
687.782	29125.8249
687.979	29336.11464
688.175	28980.87432
688.372	29097.24268
688.568	29236.07251
688.765	29603.58662
688.962	29628.08878
689.158	29528.03925
689.355	29660.75857
689.551	29299.36418
689.748	29229.94757
689.944	29293.23914
690.14	29236.07251
690.337	28750.18911
690.533	29278.9474
690.73	28907.38025
690.926	29599.50294
691.123	28984.95736
691.319	29152.36572
691.515	28840.01186
691.712	28384.79478
691.908	28560.34314
692.104	28817.55599
692.301	28446.03169
692.497	28182.71988
692.693	29295.28082
692.889	28923.71215
693.086	28891.04841
693.282	28517.47596
693.478	28497.06317
693.674	28539.93014
693.87	28817.55599
694.067	28786.93454
694.263	28723.65096
694.459	28229.66563
694.655	28113.3229
694.851	28323.55884
695.047	28572.59099
695.243	29185.03158
695.439	28856.34349
695.635	28372.54751
695.831	28397.04208
696.027	28401.12453
696.224	28360.30029
696.42	28711.40264
696.615	28791.01739
696.811	28627.7068
697.007	28323.55884
697.203	28570.54968
697.399	27968.40983
697.595	27876.56647
697.791	27821.46158
697.987	27639.8256
698.183	28711.40264
698.379	27509.21686
698.575	28148.02123
698.77	28384.79478
698.966	27858.19808
699.162	27476.56547
699.358	27639.8256
699.554	27494.93184
699.749	27778.60281
699.945	27684.72351
700.141	27917.38545
700.337	27901.05781
700.532	28068.41965
700.728	28117.40504
700.924	28276.61195
701.119	27821.46158
701.315	27899.01686
701.511	27352.08497
701.706	27876.56647
701.902	27496.97255
702.097	27499.01327
702.293	27435.75167
702.489	27515.33903
702.684	27815.33887
702.88	27617.37687
703.075	27464.32128
703.271	27637.7848
703.466	27813.29797
703.662	27821.46158
703.857	28015.35288
704.053	27747.98972
704.248	27550.03155
704.443	27588.80597
704.639	27562.27606
704.834	27596.96906
705.03	27429.62965
705.225	27739.82627
705.42	27780.64369
705.616	27721.45859
705.811	27376.57257
706.006	27521.46122
706.202	27680.64185
706.397	27605.13217
706.592	27568.39833
706.787	27472.48406
706.983	27254.13647
707.178	27752.07145
707.373	26997.03621
707.568	27119.46222
707.763	27048.04644
707.959	27103.13847
708.154	27282.70447
708.349	26941.94613
708.544	27101.098
708.739	26782.80287
708.934	26872.57491
709.129	27192.92018
709.324	26835.84964
709.519	27148.029
709.714	26766.48098
709.909	27048.04644
710.104	26458.42355
710.299	26327.86699
710.494	26699.1542
710.689	26556.34528
710.884	26489.0237
711.079	26637.94946
711.274	26176.9194
711.469	27066.41034
711.664	26607.3476
711.859	26923.583
712.054	26672.63198
712.249	26658.35089
712.443	26603.26738
712.638	27390.85708
712.833	26760.3603
713.028	26968.47086
713.223	26682.83281
713.417	26711.39531
713.612	26509.424
713.807	27127.62413
714.002	26717.51589
714.196	26950.10756
714.391	26352.34583
714.586	26395.18439
714.78	26384.98467
714.975	25950.51574
715.17	26009.66414
715.364	26435.98367
715.559	26250.35221
715.754	26403.34419
715.948	26433.94369
716.143	26225.87436
716.337	25697.62287
716.532	26397.22433
716.726	26227.91417
716.921	26499.22383
717.115	26038.21908
717.31	25769.00099
717.504	25742.48884
717.699	26013.74339
717.893	25868.93426
718.088	25528.36431
718.282	25981.10955
718.476	25985.18876
718.671	26034.13978
718.865	25956.63447
719.059	25658.87574
719.254	26093.2903
719.448	25514.09012
719.642	25915.84325
719.837	25740.44946
720.031	26352.34583
720.225	25246.97751
720.419	25715.97702
720.614	25310.1841
720.808	25554.87378
721.002	25126.68684
721.196	25430.48615
721.39	25599.73674
721.585	25377.47079
721.779	25057.3703
721.973	25304.06725
722.167	24778.09224
722.361	24849.43647
722.555	25004.36528
722.749	25155.2297
722.943	25189.88946
723.137	25140.95822
723.331	24837.20582
723.525	24749.55537
723.719	25065.52505
723.913	25275.52217
724.107	24841.28269
724.301	25340.76868
724.495	24890.2059
724.689	25049.21558
724.883	24765.86209
725.077	25128.7256
725.271	25193.96712
725.465	25169.50129
725.659	25059.40898
725.853	24939.13046
726.046	25430.48615
726.24	24637.45086
726.434	24604.84003
726.628	25163.38488
726.822	24551.84881
727.015	24804.59118
727.209	24633.37447
727.403	25108.33809
727.596	24851.47492
727.79	24829.05211
727.984	24784.20734
728.177	24598.72558
728.371	24651.71829
728.565	24431.60586
728.758	24474.40318
728.952	24983.97915
729.146	24786.24572
729.339	25120.57057
729.533	24926.8992
729.726	24918.74507
729.92	24790.32247
730.113	25379.50981
730.307	25253.09419
730.5	24853.51337
730.694	24933.01482
730.887	24928.93773
731.081	25045.13823
731.274	24788.28409
731.468	23765.34421
731.661	24127.9821
731.854	24458.09931
732.048	24229.86263
732.241	24413.2645
732.435	24916.70654
732.628	24769.9388
732.821	24588.53486
733.014	24657.83294
733.208	24841.28269
733.401	24727.13388
733.594	24456.06133
733.788	24201.3354
733.981	24390.84758
734.174	24867.7826
734.367	24659.87117
734.56	24672.10055
734.754	24712.86581
734.947	24547.77264
735.14	24174.8463
735.333	24240.05106
735.526	24117.79442
735.719	23979.24891
735.912	24097.41927
736.105	24089.26929
736.298	24019.99625
736.491	24337.86336
736.684	24005.73455
736.877	24533.50609
737.07	24315.4475
737.263	24160.58313
737.456	24105.5693
737.649	24107.60681
737.842	23791.82592
738.035	23808.12259
738.228	23850.90226
738.421	23785.71471
738.614	24052.59493
738.807	24331.74992
739	23887.57157
739.192	24003.69718
739.385	24288.95644
739.578	23938.50271
739.771	23763.30718
739.964	24099.45678
740.156	24458.09931
740.349	24476.44118
740.542	24354.16601
740.735	24223.74961
740.927	24121.86948
741.12	24085.19432
741.313	23889.60878
741.505	23958.87567
741.698	23822.38234
741.891	23551.47202
742.083	23883.49716
742.276	24066.85707
742.468	24207.44833
742.661	24207.44833
742.854	24315.4475
743.046	24001.65981
743.239	24109.64433
743.431	24637.45086
743.624	24240.05106
743.816	24005.73455
744.009	24148.35766
744.201	23657.38553
744.393	23305.05172
744.586	23186.94935
744.778	22873.4208
744.971	23463.89594
745.163	23665.53307
745.355	24180.95913
745.548	24044.44519
745.74	23844.7908
745.932	23632.94323
746.125	23490.37182
746.317	23313.19711
746.509	22967.06388
746.702	23335.59719
746.894	22861.20701
747.086	22791.99788
747.278	22755.35937
747.471	22895.81306
747.663	22936.52731
747.855	23270.43439
748.047	23046.46251
748.239	23378.36205
748.431	23292.83373
748.623	22995.56537
748.815	22712.61585
749.008	22804.21097
749.2	22684.12103
749.392	22614.92217
749.584	22100.13185
749.776	22743.14678
749.968	22505.02651
750.16	22547.76248
750.352	22443.97786
750.544	22271.02442
750.736	22295.43977
750.928	22494.85151
751.12	22079.78926
751.311	22549.79756
751.503	22456.18733
751.695	22478.5717
751.887	22240.50597
752.079	22785.89139
752.271	22755.35937
752.463	22653.59162
752.654	22598.64068
752.846	22653.59162
753.038	22136.74948
753.23	22448.04767
753.421	22409.38507
753.613	21782.83058
753.805	22643.41532
753.997	22047.24188
754.188	22498.9215
754.38	22380.89767
754.572	22293.40514
754.763	22155.05874
754.955	22277.1282
755.146	22513.16657
755.338	22126.57779
755.53	22427.69877
755.721	22128.61212
755.913	21882.4857
756.104	22114.3719
756.296	22317.82098
756.487	21943.50359
756.679	22212.02283
756.87	21817.40375
757.062	21923.16391
757.253	22283.23203
757.445	22159.12751
757.636	21935.36767
757.827	21921.12996
758.019	22260.85151
758.21	22063.51545
758.401	21943.50359
758.593	21506.28576
758.784	21731.9897
758.975	21439.19398
759.167	21595.74819
759.358	21923.16391
759.549	21553.04926
759.74	21581.51502
759.932	21609.98156
760.123	21465.62356
760.314	21195.26061
760.505	21134.28636
760.696	21083.47728
760.888	21618.11499
761.079	21179.00045
761.27	21457.49131
761.461	21248.10792
761.652	21158.67562
761.843	20900.58578
762.034	20650.68811
762.225	20285.09787
762.416	21091.60656
762.607	20780.70834
762.798	20866.04334
762.989	20648.65668
763.18	20762.42321
763.371	20652.71954
763.562	20717.72766
763.753	20851.82034
763.944	20770.54989
764.135	20086.11146
764.326	20567.40286
764.517	20465.84498
764.708	20547.09045
764.899	20516.62261
765.089	20108.44466
765.28	20329.77384
765.471	20691.3176
765.662	20291.18993
765.853	20295.25132
766.043	19848.59895
766.234	20339.92775
766.425	19477.22017
766.615	20102.35374
766.806	20132.80873
766.997	20299.31273
767.187	20084.0812
767.378	19893.25503
767.569	19954.15296
767.759	20106.41435
767.95	20065.809
768.141	20303.37416
768.331	19773.50013
768.522	19854.6883
768.712	19698.40705
768.903	19818.15279
769.093	19430.55404
769.284	19402.14964
769.474	19426.49622
769.665	19558.38391
769.855	19659.84797
770.046	20138.89984
770.236	20203.87405
770.426	19862.80748
770.617	19730.87903
770.807	19320.99869
770.998	19647.67173
771.188	19365.63089
771.378	19154.65985
771.569	19343.31454
771.759	19310.85528
771.949	19377.80366
772.139	19667.96554
772.33	19582.73433
772.52	19460.98822
772.71	19564.47146
772.9	19316.94131
773.09	19580.70511
773.281	19260.13981
773.471	19298.68333
773.661	19083.66995
773.851	19065.41621
774.041	18901.14732
774.231	18647.69741
774.421	18858.56339
774.611	18803.81522
774.802	18840.31368
774.992	18901.14732
775.182	18785.56648
775.372	18998.48865
775.562	18588.90582
775.752	19002.54474
775.942	18710.54722
776.131	18903.17517
776.321	18319.3169
776.511	18613.23297
776.701	18440.9276
776.891	18568.63361
777.081	18532.14462
777.271	18469.3054
777.461	18343.63795
777.651	18037.63684
777.84	18128.8205
778.03	17905.93987
778.22	18001.16541
778.41	18372.0132
778.599	18363.90591
778.789	18094.37248
778.979	17705.38344
779.169	18063.97804
779.358	17855.29114
779.548	18049.79424
779.738	18171.37538
779.927	17928.22601
780.117	18015.34861
780.307	17857.31705
780.496	17883.65416
780.686	17960.64296
780.875	17652.71754
781.065	17950.51256
781.254	17359.04389
781.444	17745.8972
781.633	17879.60226
781.823	17986.98239
782.012	17907.96587
782.202	17885.68012
782.391	17188.94533
782.581	17273.992
782.77	16913.5902
782.96	17067.45886
783.149	16972.30142
783.338	17431.94979
783.528	17749.94865
783.717	17679.05021
783.906	17658.79426
784.096	17361.069
784.285	17411.69775
784.474	17300.31702
784.663	16952.05592
784.853	16869.05211
785.042	16907.51675
785.231	16652.45211
785.42	16757.7122
785.61	17069.48356
785.799	16769.85801
785.988	16741.51793
786.177	16664.59719
786.366	16782.00391
786.555	16668.64556
786.744	17000.64557
786.933	16603.87264
787.122	16539.102
787.312	16806.29597
787.501	16840.71032
787.69	16703.05713
787.879	16749.61505
788.068	16294.20721
788.257	16057.43356
788.445	16031.12673
788.634	16344.80296
788.823	16314.44537
789.012	16543.1501
789.201	16611.96913
789.39	16371.11321
789.579	15859.12622
789.768	16087.78792
789.957	16031.12673
790.145	16265.87409
790.334	16205.16144
790.523	16170.75829
790.712	16415.639
790.9	16136.35561
791.089	15620.36287
791.278	16352.89838
791.467	15996.72585
791.655	16360.99384
791.844	16055.40995
792.033	15919.8312
792.221	15577.87242
792.41	15944.11351
792.599	15464.56605
792.787	15885.43158
792.976	15717.48529
793.164	15411.96013
793.353	15946.13705
793.541	15822.70376
793.73	15798.42232
793.918	16087.78792
794.107	15792.35198
794.295	15873.29062
794.484	15642.61992
794.672	15422.07663
794.861	15114.53822
795.049	15377.56412
795.238	15242.00431
795.426	15640.59655
795.614	15082.16586
795.803	15490.86914
795.991	15365.42438
796.179	15525.26564
796.368	14924.34974
796.556	14932.44293
796.744	14788.78758
796.932	14879.83708
797.121	14525.74603
797.309	14896.02353
797.497	14904.11674
797.685	15199.51559
797.874	15282.46981
798.062	15084.18913
798.25	15128.70112
798.438	15134.77093
798.626	14920.30315
798.814	15163.09672
799.002	14768.55417
799.19	14993.14162
799.378	14669.40926
799.566	15063.95639
799.755	14928.39634
799.943	14655.24553
800.131	14993.14162
800.318	15171.1898
800.506	14991.11833
800.694	14910.18665
800.882	14918.27985
801.07	15104.42186
801.258	14817.11423
801.446	14610.73059
801.634	14479.20592
801.822	14657.26892
802.01	14847.46407
802.197	15484.79919
802.385	15138.81747
802.573	14891.97692
802.761	15197.49232
802.949	15080.14259
803.136	14914.23325
803.324	14598.59007
803.512	14620.84767
803.699	14523.72256
803.887	14556.0979
804.075	14867.69722
804.262	14505.51128
804.45	14948.62928
804.638	14728.08711
804.825	14677.50281
805.013	14367.91131
805.201	14891.97692
805.388	14738.20391
805.576	14719.99366
805.763	14910.18665
805.951	14900.07014
806.138	14764.50748
806.326	14841.39411
806.513	14596.56664
806.701	14612.75401
806.888	14839.37079
807.075	14891.97692
807.263	14580.3792
807.45	14758.43743
807.638	14823.18421
807.825	15092.28223
808.012	14647.15194
808.2	14754.39074
808.387	14904.11674
808.574	14677.50281
808.761	14912.20995
808.949	15033.60724
809.136	14857.58065
809.323	14728.08711
809.51	14639.05834
809.698	14580.3792
809.885	14722.01702
810.072	14543.95718
810.259	14475.15892
810.446	14560.1448
810.633	14286.96673
810.82	14596.56664
811.008	14572.28545
811.195	14689.64309
811.382	14572.28545
811.569	14671.43265
811.756	14796.88092
811.943	14946.60599
812.13	14578.35577
812.317	14754.39074
812.504	14578.35577
812.691	15187.37597
812.878	14669.40926
813.064	14746.29733
813.251	14667.38588
813.438	14685.59633
813.625	14373.98204
813.812	14736.18055
813.999	14881.86039
814.186	14632.98812
814.372	14572.28545
814.559	14871.74384
814.746	14414.45325
814.933	14558.12135
815.12	14632.98812
815.306	14665.36249
815.493	14695.71322
815.68	14707.85346
815.866	14341.60462
816.053	14641.08174
816.24	14361.84056
816.426	14527.76949
816.613	14149.35416
816.799	14220.18529
816.986	14230.30382
817.173	14291.01402
817.359	14327.43936
817.546	14359.81697
817.732	14212.09043
817.919	14052.21006
818.105	13928.74826
818.292	13975.30052
818.478	13955.06057
818.665	14224.23271
818.851	14203.99553
819.037	14291.01402
819.224	14349.69901
819.41	14313.27402
819.597	14185.78191
819.783	14416.47679
819.969	14483.25292
820.156	14517.65215
820.342	14313.27402
820.528	14467.06491
820.714	14040.06668
820.901	14201.9718
821.087	14193.87687
821.273	14248.51706
821.459	14052.21006
821.646	14013.75573
821.832	13697.9892
822.018	13811.34926
822.204	13778.96164
822.39	14009.70786
822.576	13455.03984
822.762	13704.0623
822.948	13780.98589
823.134	13679.7697
823.32	13424.6675
823.507	13815.39766
823.693	13785.03438
823.879	13677.7453
824.065	13586.64366
824.25	13770.86462
824.436	13728.35445
824.622	13951.01255
824.808	13783.01014
824.994	13833.61531
825.18	13643.32992
825.366	13930.7723
825.552	13817.42185
825.738	13772.88888
825.923	13511.73261
826.109	13515.78198
826.295	13149.24936
826.481	13665.5988
826.667	13546.15181
826.852	13560.32412
827.038	13487.43607
827.224	13928.74826
827.409	13637.25652
827.595	13374.04496
827.781	13665.5988
827.966	13683.8185
828.152	13376.06991
828.338	13412.51831
828.523	13175.57958
828.709	13473.26284
828.894	13210.01024
829.08	13505.65852
829.266	12995.30286
829.451	13467.18854
829.637	13147.22393
829.822	13382.14473
830.008	13017.58634
830.193	12829.16994
830.378	12804.85478
830.564	12985.17381
830.749	12922.37081
830.935	13082.40759
831.12	12930.47471
831.305	13001.38023
831.491	12602.19626
831.676	12885.90226
831.861	12354.86897
832.047	12523.14308
832.232	12590.03485
832.417	12571.79232
832.602	12835.24861
832.788	12924.3968
832.973	12847.40579
833.158	12954.78588
833.343	12920.34483
833.528	13058.10021
833.714	12750.14271
833.899	12928.44874
834.084	12656.91988
834.269	12932.50067
834.454	12575.84626
834.639	12754.1956
834.824	12397.44869
835.009	12494.76267
835.194	11989.76979
835.379	12267.67241
835.564	12070.924
835.749	12119.61057
835.934	12231.16763
836.119	12385.28336
836.304	12198.71697
836.489	12342.70278
836.674	11995.85679
836.859	12466.38099
837.044	12042.52145
837.228	12458.27171
837.413	12119.61057
837.598	12300.11915
837.783	12158.151
837.968	12285.92392
838.152	12099.32503
838.337	12006.00164
838.522	11965.42105
838.707	12148.00905
838.891	11667.0517
839.076	11932.95427
839.261	11811.18504
839.445	11711.71747
839.63	11409.12138
839.815	11662.99096
839.999	11362.39308
840.184	11455.84449
840.368	11429.43641
840.553	11514.74898
840.737	11453.81316
840.922	11386.77371
841.106	11358.32951
841.291	11738.10886
841.475	11805.09578
841.66	11831.48201
841.844	11581.76857
842.029	11760.43888
842.213	11451.78182
842.397	11626.44269
842.582	11303.4673
842.766	11687.35485
842.951	11455.84449
843.135	11333.94721
843.319	11494.438
843.504	11569.58395
843.688	11368.48838
843.872	11301.43522
844.056	11128.67116
844.241	11272.98511
844.425	11012.77459
844.609	11053.44409
844.793	10907.01306
844.977	11045.31054
845.161	10752.38276
845.346	11104.27481
845.53	10805.2902
845.714	10791.04668
845.898	10554.92532
846.082	10438.83889
846.266	10483.64909
846.45	10782.90726
846.634	10839.87923
846.818	10646.54362
847.002	10760.52289
847.186	10565.10638
847.37	10175.95981
847.554	10575.28712
847.738	10363.46212
847.922	10316.59721
848.106	10316.59721
848.29	10446.98666
848.473	10459.20794
848.657	10100.51862
848.841	10230.99954
849.025	10363.46212
849.209	9906.7294
849.392	10214.69251
849.576	9902.64822
849.76	10051.57354
849.944	9908.76997
850.127	10530.4895
850.311	10239.15272
850.495	10336.97412
850.678	10224.8845
850.862	10165.76616
851.046	10292.14315
851.229	10226.92286
851.413	10357.3497
851.596	10363.46212
851.78	10027.09794
851.964	10249.3439
852.147	9996.50053
852.331	9892.44502
852.514	9923.05352
852.698	10088.28311
852.881	9720.97557
853.065	9986.30068
853.248	9798.55821
853.431	9912.85106
853.615	10029.13765
853.798	10192.26892
853.982	9716.89166
854.165	9886.32293
854.348	9800.59956
854.532	9835.30028
854.715	9549.39829
854.898	9461.52408
855.081	9375.6647
855.265	9865.91498
855.448	9379.7539
855.631	9708.72367
855.814	9373.62008
855.997	9038.07572
856.181	9201.81275
856.364	9357.26252
856.547	9234.54705
856.73	9320.45416
856.913	9195.67459
857.096	9377.70931
857.279	9001.21963
857.462	9300.00275
857.645	9029.88597
857.828	9079.02031
858.011	9007.36271
858.194	9162.93514
858.377	9193.6285
858.56	9449.26021
858.743	8798.40854
858.926	9353.17297
859.109	9385.88757
859.292	9344.99366
859.475	8716.41453
859.658	8851.68905
859.841	8890.6171
860.023	8849.64002
860.206	8892.66577
860.389	9207.95076
860.572	8775.8631
860.755	8919.2968
860.937	8667.20401
861.12	8816.85318
861.303	8990.98082
861.486	8874.22713
861.668	8663.10266
861.851	8755.36533
862.034	8406.61865
862.216	8544.13083
862.399	8269.01992
862.581	8219.70943
862.764	7925.66222
862.947	8133.38861
863.129	7925.66222
863.312	8030.57964
863.494	8168.33222
863.677	8201.21507
863.859	8275.18293
864.042	8201.21507
864.224	8135.44427
864.406	8548.23436
864.589	8102.5512
864.771	8464.09686
864.954	8049.08897
865.136	8096.38318
865.318	7970.92723
865.501	8166.27688
865.683	7837.16093
865.865	8283.4
866.048	7847.45375
866.23	8063.48399
866.412	7896.85204
866.594	7705.36684
866.777	7715.66635
866.959	7709.48671
867.141	7723.90558
867.323	7709.48671
867.505	7670.34457
867.687	7833.04366
867.869	7748.62124
868.052	8003.84102
868.234	7851.57073
868.416	8155.99984
868.598	7958.58321
868.78	8129.27721
868.962	7732.14446
869.144	7705.36684
869.326	7563.17956
869.508	7777.45235
869.69	7585.85389
869.872	7808.33829
870.054	7629.13407
870.236	7567.30236
870.417	7554.93371
870.599	7631.1948
870.781	7261.98179
870.963	7637.37685
871.145	7627.07332
871.327	7800.1025
871.508	7666.2239
871.69	7991.49896
871.872	7701.24689
872.054	7861.86281
872.235	7612.64749
872.417	7592.03735
872.599	7449.76895
872.78	7822.75012
872.962	7437.39294
873.144	7526.07053
873.325	7552.87219
873.507	8003.84102
873.689	7756.85912
873.87	7882.44544
874.052	7474.51865
874.233	7728.02506
874.415	7534.31758
874.596	7598.22061
874.778	7272.30447
874.959	7538.44098
875.141	7274.36894
875.322	7509.57539
875.503	7193.83823
875.685	7608.52563
875.866	7365.18393
876.048	7416.76451
876.229	7418.82745
876.41	7286.75531
876.592	7392.00753
876.773	7447.70634
876.954	7100.87628
877.136	7435.33019
877.317	6960.31455
877.498	7365.18393
877.679	7107.07515
877.86	7348.67527
878.042	7173.18391
878.223	7643.55871
878.404	7528.13232
878.585	7618.83012
878.766	7257.85256
878.947	7604.40369
879.128	7441.51836
879.309	7511.63736
879.49	7414.70155
879.672	7592.03735
879.853	7396.13391
880.034	7657.98231
880.215	7307.39749
880.396	7583.79269
880.576	7297.07667
880.757	7756.85912
880.938	7569.36373
881.119	7705.36684
881.3	7561.11813
881.481	7721.8458
881.662	7503.38936
881.843	7480.70558
882.023	7071.94558
882.204	7121.53839
882.385	6972.72124
882.566	7292.94819
882.747	7049.21124
882.927	7544.62591
883.108	7455.95667
883.289	7530.1941
883.469	7602.34268
883.65	7583.79269
883.831	7486.89233
884.011	7693.00674
884.192	7569.36373
884.373	7835.10231
884.553	7497.20313
884.734	7548.7491
884.914	7295.01244
885.095	7303.26923
885.275	7105.00888
885.456	7138.06647
885.636	7321.84571
885.817	7575.5477
885.997	7427.079
886.178	7818.63256
886.358	7713.60649
886.538	7771.2746
886.719	7736.26378
886.899	7851.57073
887.08	7394.07073
887.26	7592.03735
887.44	7332.16521
887.621	7563.17956
887.801	7295.01244
887.981	7488.95453
888.161	7383.75451
888.342	7495.14102
888.522	7559.05668
888.702	7455.95667
888.882	7274.36894
889.062	7614.70839
889.242	7313.58971
889.423	7451.83155
889.603	7164.92156
889.783	7482.76785
889.963	7084.34499
890.143	7321.84571
890.323	7158.72457
890.503	7517.82313
890.683	7177.31495
890.863	7255.78791
891.043	7049.21124
891.223	7449.76895
891.403	7228.94549
891.583	7678.58566
891.763	7406.44949
891.943	7664.16354
892.122	7598.22061
892.302	7734.20413
892.482	7474.51865
892.662	7746.56171
892.842	7521.94687
893.022	7625.01255
893.201	7348.67527
893.381	7616.76926
893.561	7216.55542
893.741	7363.12043
893.92	7138.06647
894.1	7348.67527
894.28	7274.36894
894.459	7117.40615
894.639	7133.93458
894.819	7278.49782
894.998	7092.61081
895.178	7472.45629
895.357	7274.36894
895.537	7212.42522
895.716	7278.49782
895.896	7295.01244
896.075	6956.17881
896.255	7224.81556
896.434	7047.14434
896.614	7129.80261
896.793	6945.83905
896.973	7245.46435
897.152	7088.47795
897.331	7439.45566
897.511	7377.56451
897.69	7270.23998
897.87	7237.2051
898.049	7303.26923
898.228	7144.26413
898.407	7295.01244
898.587	6832.0644
898.766	7301.20506
898.945	6871.37613
899.124	6842.41039
899.304	6875.51373
899.483	6774.11634
899.662	6906.54284
899.841	7117.40615
900.02	6546.2892
900.199	6918.95305
900.378	6825.85654
900.557	6964.4502
900.737	6728.57315
900.916	7045.07743
901.095	6778.25608
901.274	6647.81022
901.453	6450.93319
901.632	6780.32592
901.811	6546.2892
901.989	6546.2892
902.168	6260.07341
902.347	6687.16063
902.526	6251.77068
902.705	6496.54436
902.884	6320.25706
903.063	6567.01228
903.242	6567.01228
903.42	6645.73892
903.599	6390.79218
903.778	6535.92679
903.957	6343.0802
904.135	6399.08865
904.314	6152.10857
904.493	6658.1664
904.672	6131.33883
904.85	6127.1846
905.029	5981.72723
905.207	5998.35677
905.386	6054.47033
905.565	5890.2378
905.743	5950.54278
905.922	6123.03027
906.1	5825.75192
906.279	6083.5595
906.457	5919.35303
906.636	6320.25706
906.814	5754.99938
906.993	5892.31761
907.171	5888.15797
907.35	5990.04219
907.528	5584.24869
907.707	5752.91801
907.885	5373.71604
908.063	5744.5923
908.242	5555.08028
908.42	5713.3675
908.598	5379.97294
908.777	5790.37906
908.955	5473.80109
909.133	5613.41247
909.311	5202.61245
909.49	5413.33951
909.668	5160.85605
909.846	5698.79411
910.024	5409.16902
910.202	5496.72961
910.38	5377.88733
910.559	5573.83193
910.737	5315.30812
910.915	5496.72961
911.093	5190.08651
911.271	5415.42472
911.449	5031.35211
911.627	5304.8762
911.805	5031.35211
911.983	5238.09807
912.161	5102.38144
912.339	5350.77226
912.517	5000.00714
912.695	5179.64758
912.872	4776.26313
913.05	5096.11522
913.228	4979.10761
913.406	5102.38144
913.584	4753.24661
913.762	4811.82873
913.939	4675.80731
914.117	4995.82742
914.295	4587.86596
914.473	4801.36894
914.65	4512.45635
914.828	4866.21043
915.006	4548.07003
915.184	4843.20467
915.361	4740.69099
915.539	4918.48596
915.716	4899.66842
915.894	4868.30173
916.072	4623.46603
916.249	4805.55292
916.427	4585.77164
916.604	4627.65384
916.782	4535.50123
916.959	4612.99609
917.137	4522.93163
917.314	4449.59312
917.492	4395.09568
917.669	4470.54973
917.847	4281.86175
918.024	4491.50415
918.201	4254.59235
918.379	4504.07574
918.556	4262.98332
918.733	4365.7448
918.911	4082.50274
919.088	4453.78462
919.265	4072.00491
919.442	4286.05672
919.62	4002.70627
919.797	4248.29889
919.974	4164.36791
920.151	4267.17867
920.328	4011.1073
920.506	4063.60627
920.683	3857.73737
920.86	4015.30769
921.037	3794.67769
921.214	3794.67769
921.391	3624.32905
921.568	3668.5056
921.745	3740.01168
921.922	3847.22866
922.099	3687.43584
922.276	3740.01168
922.453	3624.32905
922.63	3948.09161
922.807	3641.1592
922.984	3681.12593
923.161	3363.31104
923.338	3609.60169
923.514	3415.95795
923.691	3584.35264
923.868	3224.27129
924.045	3283.26691
924.222	3154.72402
924.399	3190.55363
924.575	3049.31592
924.752	3287.48038
924.929	3257.98469
925.105	3563.30971
925.282	3207.41299
925.459	3308.54669
925.635	3188.44614
925.812	3321.18565
925.989	3150.50846
926.165	3350.67415
926.342	3047.20736
926.518	3182.12356
926.695	3158.93951
926.871	3053.533
927.048	2753.97292
927.224	3089.37566
927.401	2884.80257
927.577	3057.75002
927.754	2785.63012
927.93	2992.37932
928.107	2690.64956
928.283	2903.78948
928.459	2669.53918
928.636	2618.8691
928.812	2582.9735
928.988	2658.98351
929.165	2185.79949
929.341	2540.73895
929.517	2521.73188
929.693	2308.36966
929.87	2302.03058
930.046	2739.19853
930.222	2196.36705
930.398	2496.38767
930.574	2329.49931
930.751	2509.05998
930.927	2228.06845
931.103	2530.17958
931.279	2217.50153
931.455	2344.28948
931.631	2061.08717
931.807	2373.86837
931.983	2183.68595
932.159	2251.31489
932.335	1860.22919
932.511	2158.32286
932.687	1951.15057
932.863	2048.4031
933.039	1976.5221
933.215	2039.94691
933.391	1773.52817
933.566	2001.89273
933.742	1822.16625
933.918	1836.96869
934.094	1652.98196
934.27	1648.75209
934.445	1545.11775
934.621	1769.29867
934.797	1519.73736
934.973	1555.69287
935.148	1458.40099
935.324	1526.08247
935.5	1255.35973
935.675	1492.24179
935.851	1331.49871
936.027	1475.3214
936.202	1153.84669
936.378	1308.23374
936.553	1096.74954
936.729	1086.17637
936.904	940.28131
937.08	995.25276
937.255	731.01702
937.431	944.50971
937.606	764.83132
937.782	847.26422
937.957	709.88445
938.133	804.98915
938.308	692.97918
938.483	731.01702
938.659	619.02735
938.834	695.0923
939.009	450.05468
939.185	665.50967
939.36	557.76452
939.535	616.91466
939.71	504.96086
939.886	570.43868
940.061	435.274
940.236	500.73695
940.411	428.93966
940.586	469.05951
940.761	340.27436
940.937	348.71739
941.112	302.28422
941.287	359.27157
941.462	230.54133
941.637	306.50506
941.812	416.27141
941.987	257.96985
942.162	310.72597
942.337	323.38914
942.512	238.98052
942.687	298.06345
942.862	285.40159
943.037	285.40159
943.212	302.28422
943.386	300.17382
943.561	300.17382
943.736	382.49226
943.911	331.83161
944.086	333.94227
944.26	249.52996
944.435	374.04814
944.61	213.66387
944.785	323.38914
944.959	270.63026
945.134	211.55428
945.309	238.98052
945.483	342.38509
945.658	224.21213
945.833	253.74986
946.007	314.94696
946.182	207.33515
946.357	198.89714
946.531	226.32184
946.706	226.32184
946.88	209.44471
947.055	217.88312
947.229	291.73244
947.404	146.16698
947.578	257.96985
947.752	198.89714
947.927	188.35008
948.101	245.31013
948.276	325.49973
948.45	268.52014
948.624	291.73244
948.799	196.78769
948.973	245.31013
949.147	213.66387
949.321	371.93715
949.496	249.52996
949.67	276.96072
949.844	171.47585
950.018	323.38914
950.193	196.78769
950.367	276.96072
950.541	247.42003
950.715	287.51185
950.889	350.82819
951.063	285.40159
951.237	314.94696
951.411	234.76089
951.585	167.25749
951.759	302.28422
951.933	260.07987
952.107	274.85054
952.281	338.16365
952.455	348.71739
952.629	253.74986
952.803	264.29997
952.977	306.50506
953.151	289.62213
953.325	196.78769
953.499	376.15915
953.672	262.18991
953.846	397.27012
954.02	361.38246
954.194	306.50506
954.368	194.67826
954.541	312.83645
954.715	230.54133
954.889	348.71739
955.062	272.74039
955.236	319.16801
955.41	300.17382
955.583	357.1607
955.757	317.05747
955.93	386.71443
956.104	194.67826
956.278	393.0478
956.451	325.49973
956.625	340.27436
956.798	264.29997
956.972	378.27017
957.145	226.32184
957.319	304.39463
957.492	247.42003
957.665	260.07987
957.839	283.29134
958.012	243.20024
958.185	234.76089
958.359	314.94696
958.532	213.66387
958.705	264.29997
958.879	205.22562
959.052	308.61551
959.225	295.95309
959.398	276.96072
959.572	272.74039
959.745	291.73244
959.918	205.22562
960.091	344.49584
960.264	262.18991
960.438	329.72097
960.611	209.44471
960.784	276.96072
960.957	300.17382
961.13	251.6399
961.303	260.07987
961.476	251.6399
961.649	272.74039
961.822	279.07091
961.995	302.28422
962.168	245.31013
962.341	298.06345
962.514	283.29134
962.686	298.06345
962.859	295.95309
963.032	300.17382
963.205	281.18111
963.378	222.10244
963.551	238.98052
963.723	179.9128
963.896	342.38509
964.069	264.29997
964.242	327.61034
964.414	253.74986
964.587	283.29134
964.76	285.40159
964.932	247.42003
965.105	201.00661
965.278	192.56884
965.45	281.18111
965.623	251.6399
965.795	171.47585
965.968	224.21213
966.14	255.85985
966.313	272.74039
966.485	241.09037
966.658	241.09037
966.83	205.22562
967.003	213.66387
967.175	222.10244
967.348	262.18991
967.52	173.58505
967.692	238.98052
967.865	167.25749
968.037	291.73244
968.209	215.77348
968.382	171.47585
968.554	201.00661
968.726	257.96985
968.898	182.02209
969.071	190.45945
969.243	154.60294
969.415	167.25749
969.587	209.44471
969.759	129.2961
969.932	171.47585
970.104	243.20024
970.276	148.27594
970.448	188.35008
970.62	120.86117
970.792	122.96987
970.964	120.86117
971.136	205.22562
971.308	222.10244
971.48	158.82104
971.652	186.24073
971.824	150.38492
971.996	177.80353
972.168	203.11611
972.339	173.58505
972.511	186.24073
972.683	150.38492
972.855	150.38492
973.027	163.03922
973.199	158.82104
973.37	179.9128
973.542	110.318
973.714	182.02209
973.886	203.11611
974.057	146.16698
974.229	211.55428
974.401	158.82104
974.572	171.47585
974.744	95.55848
974.915	163.03922
975.087	184.1314
975.259	163.03922
975.43	160.93012
975.602	146.16698
975.773	137.73137
975.945	171.47585
976.116	112.42659
976.288	70.25899
976.459	141.94913
976.63	133.51369
976.802	137.73137
976.973	78.6918
977.145	116.64384
977.316	106.10089
977.487	173.58505
977.659	190.45945
977.83	70.25899
978.001	32.3159
978.172	152.49392
978.344	156.71198
978.515	139.84024
978.686	110.318
978.857	97.66692
979.028	232.6511
979.2	131.40488
979.371	106.10089
979.542	95.55848
979.713	70.25899
979.884	36.53143
980.055	150.38492
980.226	146.16698
980.397	95.55848
980.568	91.34168
980.739	9.13219
980.91	78.6918
981.081	137.73137
981.252	85.01664
981.423	179.9128
981.594	91.34168
981.765	103.99236
981.936	139.84024
982.106	72.36716
982.277	63.93463
982.448	51.28651
982.619	38.63923
982.79	125.07859
982.96	57.61047
983.131	91.34168
983.302	70.25899
983.472	78.6918
983.643	15.45473
983.814	93.45007
983.984	99.77538
984.155	137.73137
984.326	-43.54722
984.496	55.50246
984.667	146.16698
984.837	63.93463
985.008	63.93463
985.178	137.73137
985.349	146.16698
985.519	93.45007
985.69	93.45007
985.86	19.66988
986.031	70.25899
986.201	127.18734
986.371	110.318
986.542	95.55848
986.712	63.93463
986.882	72.36716
987.053	99.77538
987.223	57.61047
987.393	38.63923
987.563	53.39447
987.734	19.66988
987.904	40.74705
988.074	19.66988
988.244	163.03922
988.414	91.34168
988.585	-9.83416
988.755	57.61047
988.925	15.45473
989.095	133.51369
989.265	82.90833
989.435	66.04272
989.605	19.66988
989.775	-14.04863
989.945	36.53143
990.115	74.47535
990.285	53.39447
990.455	-16.15583
990.625	108.20943
990.795	82.90833
990.965	-1.40491
991.134	61.82655
991.304	-58.29468
991.474	85.01664
991.644	53.39447
991.814	-26.69148
991.984	127.18734
992.153	78.6918
992.323	32.3159
992.493	19.66988
992.662	74.47535
992.832	-18.26301
993.002	120.86117
993.171	61.82655
993.341	19.66988
993.511	13.34719
993.68	4.91728
993.85	36.53143
994.019	53.39447
994.189	78.6918
994.358	11.23968
994.528	19.66988
994.697	23.88513
994.867	23.88513
995.036	44.96277
995.206	87.12496
995.375	133.51369
995.544	47.07066
995.714	19.66988
995.883	129.2961
996.052	11.23968
996.222	11.23968
996.391	40.74705
996.56	30.20817
996.73	23.88513
996.899	49.17857
997.068	-39.33343
997.237	70.25899
997.406	66.04272
997.576	108.20943
997.745	-22.47729
997.914	-20.37016
998.083	36.53143
998.252	11.23968
998.421	-1.40491
998.59	53.39447
998.759	70.25899
998.928	82.90833
999.097	72.36716
999.266	13.34719
999.435	34.42366
999.604	-62.50801
999.773	15.45473
999.942	-49.86771
1000.111	57.61047
1000.28	13.34719
1000.448	-68.82782
1000.617	19.66988
1000.786	36.53143
1000.955	4.91728
1001.124	66.04272
1001.292	61.82655
1001.461	-7.72688
1001.63	32.3159
1001.798	-1.40491
1001.967	-20.37016
1002.136	-3.51226
1002.304	47.07066
1002.473	4.91728
1002.642	13.34719
1002.81	49.17857
1002.979	11.23968
1003.147	-7.72688
1003.316	55.50246
1003.484	51.28651
1003.653	21.7775
1003.821	32.3159
1003.99	44.96277
1004.158	25.99279
1004.327	87.12496
1004.495	-14.04863
1004.663	40.74705
1004.832	32.3159
1005	13.34719
1005.168	28.10047
1005.337	-14.04863
1005.505	44.96277
1005.673	38.63923
1005.842	70.25899
1006.01	-5.61958
1006.178	36.53143
1006.346	78.6918
1006.514	-11.94141
1006.683	-26.69148
1006.851	-39.33343
1007.019	21.7775
1007.187	-81.46674
1007.355	57.61047
1007.523	19.66988
1007.691	53.39447
1007.859	-16.15583
1008.027	30.20817
1008.195	74.47535
1008.363	66.04272
1008.531	21.7775
1008.699	-37.2265
1008.867	19.66988
1009.035	-11.94141
1009.203	-22.47729
1009.37	-9.83416
1009.538	-43.54722
1009.706	70.25899
1009.874	-9.83416
1010.042	-7.72688
1010.209	9.13219
1010.377	87.12496
1010.545	-14.04863
1010.713	-28.79853
1010.88	59.7185
1011.048	-28.79853
1011.216	82.90833
1011.383	-33.01256
1011.551	-1.40491
1011.718	-30.90556
1011.886	-39.33343
1012.054	70.25899
1012.221	70.25899
1012.389	36.53143
1012.556	49.17857
1012.724	-45.65407
1012.891	4.91728
1013.058	-24.5844
1013.226	-30.90556
1013.393	-37.2265
1013.561	-49.86771
1013.728	13.34719
1013.895	0.70246
1014.063	40.74705
1014.23	11.23968
1014.397	-9.83416
1014.565	23.88513
1014.732	44.96277
1014.899	30.20817
1015.066	44.96277
1015.233	44.96277
1015.401	-14.04863
1015.568	19.66988
1015.735	78.6918
1015.902	19.66988
1016.069	63.93463
1016.236	15.45473
1016.403	91.34168
1016.57	-110.95394
1016.737	91.34168
1016.904	55.50246
1017.071	53.39447
1017.238	-56.18797
1017.405	95.55848
1017.572	34.42366
1017.739	-35.11954
1017.906	53.39447
1018.073	28.10047
1018.24	-3.51226
1018.407	21.7775
1018.573	87.12496
1018.74	-45.65407
1018.907	4.91728
1019.074	-30.90556
1019.241	17.5623
1019.407	42.8549
1019.574	34.42366
1019.741	-14.04863
1019.907	-47.7609
1020.074	-5.61958
1020.241	34.42366
1020.407	63.93463
1020.574	-30.90556
1020.74	-20.37016
1020.907	-49.86771
1021.073	44.96277
1021.24	23.88513
1021.406	34.42366
1021.573	13.34719
1021.739	-81.46674
1021.906	44.96277
1022.072	-1.40491
1022.239	2.80986
1022.405	28.10047
1022.571	15.45473
1022.738	7.02472
1022.904	44.96277
1023.07	63.93463
1023.237	4.91728
1023.403	19.66988
1023.569	19.66988
1023.735	-9.83416
1023.902	-5.61958
1024.068	-43.54722
1024.234	13.34719
1024.4	9.13219
1024.566	11.23968
1024.732	47.07066
1024.898	-1.40491
1025.065	-7.72688
1025.231	23.88513
1025.397	-24.5844
1025.563	-51.97449
1025.729	19.66988
1025.895	-70.93437
1026.061	15.45473
1026.227	15.45473
1026.392	-9.83416
1026.558	44.96277
1026.724	-30.90556
1026.89	44.96277
1027.056	-1.40491
1027.222	32.3159
1027.388	11.23968
1027.553	7.02472
1027.719	-39.33343
1027.885	23.88513
1028.051	15.45473
1028.216	-24.5844
1028.382	-70.93437
1028.548	-39.33343
1028.713	-3.51226
1028.879	95.55848
1029.045	-26.69148
1029.21	-41.44034
1029.376	21.7775
1029.541	2.80986
1029.707	23.88513
1029.873	32.3159
1030.038	-5.61958
1030.204	-47.7609
1030.369	7.02472
1030.534	61.82655
1030.7	38.63923
1030.865	11.23968
1031.031	-18.26301
1031.196	4.91728
1031.361	21.7775
1031.527	25.99279
1031.692	-22.47729
1031.857	-30.90556
1032.023	-28.79853
1032.188	-14.04863
1032.353	-9.83416
1032.518	36.53143
1032.684	13.34719
1032.849	-9.83416
1033.014	28.10047
1033.179	32.3159
1033.344	-28.79853
1033.509	4.91728
1033.674	-66.72124
1033.839	-14.04863
1034.004	-73.04089
1034.17	-3.51226
1034.335	0.70246
1034.5	2.80986
1034.664	7.02472
1034.829	47.07066
1034.994	-3.51226
1035.159	0.70246
1035.324	36.53143
1035.489	15.45473
1035.654	87.12496
1035.819	-43.54722
1035.984	57.61047
1036.148	-35.11954
1036.313	11.23968
1036.478	59.7185
1036.643	-1.40491
1036.807	13.34719
1036.972	-62.50801
1037.137	21.7775
1037.301	-33.01256
1037.466	-3.51226
1037.631	-47.7609
1037.795	28.10047
1037.96	2.80986
1038.124	-43.54722
1038.289	-18.26301
1038.454	-14.04863
1038.618	28.10047
1038.783	-39.33343
1038.947	57.61047
1039.111	2.80986
1039.276	-20.37016
1039.44	61.82655
1039.605	-33.01256
1039.769	66.04272
1039.933	17.5623
1040.098	-24.5844
1040.262	-22.47729
1040.426	-18.26301
1040.591	-11.94141
1040.755	9.13219
1040.919	32.3159
1041.083	-16.15583
1041.248	34.42366
1041.412	-43.54722
1041.576	11.23968
1041.74	32.3159
1041.904	-47.7609
1042.068	-30.90556
1042.232	36.53143
1042.397	4.91728
1042.561	44.96277
1042.725	53.39447
1042.889	-11.94141
1043.053	28.10047
1043.217	21.7775
1043.381	-66.72124
1043.544	4.91728
1043.708	-28.79853
1043.872	-7.72688
1044.036	19.66988
1044.2	-7.72688
1044.364	-9.83416
1044.528	47.07066
1044.691	-11.94141
1044.855	-3.51226
1045.019	15.45473
1045.183	-26.69148
1045.346	15.45473
1045.51	11.23968
1045.674	28.10047
1045.837	28.10047
1046.001	19.66988
1046.165	76.58356
1046.328	2.80986
1046.492	2.80986
1046.655	-14.04863
1046.819	-37.2265
1046.983	9.13219
1047.146	-62.50801
1047.31	-30.90556
1047.473	-14.04863
1047.636	32.3159
1047.8	-18.26301
1047.963	-47.7609
1048.127	36.53143
1048.29	4.91728
