Data from Scatter_Coeff_Baseline_USB4F045381__9__0009.txt Node

Date: Thu Feb 13 19:17:03 EST 2025
User: mmckonesweet
Spectrometer: USB4F04538
Trigger mode: 4
Integration Time (sec): 2.400000E-3
Scans to average: 1
Electric dark correction enabled: true
Nonlinearity correction enabled: true
Boxcar width: 0
XAxis mode: Wavelengths
Number of Pixels in Spectrum: 3648
>>>>>Begin Spectral Data<<<<<
345.52	49.5299
345.736	49.5299
345.952	49.5299
346.168	62.17789
346.384	-7.37567
346.6	-38.98228
346.816	11.59093
347.032	49.5299
347.248	76.93493
347.464	-57.94356
347.68	24.2364
347.896	-45.30293
348.112	24.2364
348.328	47.42198
348.544	-1.05368
348.76	-57.94356
348.975	-32.6614
349.191	3.16109
349.407	-22.12611
349.623	-38.98228
349.839	-17.91182
350.055	-11.5902
350.27	49.5299
350.486	49.5299
350.702	43.20621
350.918	-15.80464
351.133	7.37596
351.349	-43.19607
351.565	34.77495
351.781	22.12877
351.996	20.02115
352.212	91.69308
352.428	-34.76838
352.644	-1.05368
352.859	28.45175
353.075	-20.01897
353.291	47.42198
353.506	17.91356
353.722	74.82672
353.938	7.37596
354.153	32.66719
354.369	-7.37567
354.584	-30.55439
354.8	-3.16104
355.016	-43.19607
355.231	38.99053
355.447	-30.55439
355.662	64.28597
355.878	-26.3403
356.093	-95.85994
356.309	7.37596
356.524	-68.47672
356.74	-22.12611
356.955	-22.12611
357.171	7.37596
357.386	-20.01897
357.602	45.31408
357.817	-38.98228
358.033	-1.05368
358.248	-9.48295
358.464	-13.69743
358.679	32.66719
358.895	51.63784
359.11	51.63784
359.325	-11.5902
359.541	-41.08919
359.756	-55.83685
359.972	43.20621
360.187	-51.62336
360.402	5.26851
360.618	66.39408
360.833	-11.5902
361.048	-38.98228
361.264	30.55946
361.479	24.2364
361.694	28.45175
361.909	51.63784
362.125	49.5299
362.34	9.48343
362.555	28.45175
362.77	-15.80464
362.986	1.05369
363.201	57.9618
363.416	-53.73012
363.631	15.80599
363.847	36.88273
364.062	-20.01897
364.277	-17.91182
364.492	41.09836
364.707	62.17789
364.922	60.06984
365.138	24.2364
365.353	-64.26353
365.568	34.77495
365.783	45.31408
365.998	-41.08919
366.213	1.05369
366.428	-20.01897
366.643	-26.3403
366.858	49.5299
367.073	43.20621
367.288	24.2364
367.503	-1.05368
367.718	20.02115
367.933	43.20621
368.148	24.2364
368.363	32.66719
368.578	45.31408
368.793	26.34407
369.008	-13.69743
369.223	-34.76838
369.438	-55.83685
369.653	15.80599
369.868	24.2364
370.083	-26.3403
370.298	11.59093
370.513	-26.3403
370.728	45.31408
370.943	32.66719
371.157	-1.05368
371.372	49.5299
371.587	7.37596
371.802	-43.19607
372.017	-15.80464
372.232	17.91356
372.446	15.80599
372.661	20.02115
372.876	11.59093
373.091	28.45175
373.306	62.17789
373.52	13.69845
373.735	17.91356
373.95	28.45175
374.165	7.37596
374.379	7.37596
374.594	102.23527
374.809	26.34407
375.023	-3.16104
375.238	1.05369
375.453	45.31408
375.667	-34.76838
375.882	-9.48295
376.097	-41.08919
376.311	7.37596
376.526	91.69308
376.741	-60.05024
376.955	24.2364
377.17	66.39408
377.384	-68.47672
377.599	-13.69743
377.813	24.2364
378.028	-1.05368
378.242	-28.44736
378.457	20.02115
378.672	32.66719
378.886	-30.55439
379.101	7.37596
379.315	-24.23321
379.53	7.37596
379.744	-22.12611
379.958	-81.11567
380.173	43.20621
380.387	-5.26836
380.602	32.66719
380.816	-9.48295
381.031	-17.91182
381.245	-24.23321
381.459	114.88664
381.674	-34.76838
381.888	-3.16104
382.103	11.59093
382.317	1.05369
382.531	17.91356
382.746	30.55946
382.96	79.04317
383.174	-24.23321
383.388	-38.98228
383.603	32.66719
383.817	3.16109
384.031	-17.91182
384.246	24.2364
384.46	-30.55439
384.674	-24.23321
384.888	45.31408
385.103	51.63784
385.317	45.31408
385.531	-49.51657
385.745	-20.01897
385.959	68.5022
386.174	-7.37567
386.388	32.66719
386.602	-43.19607
386.816	11.59093
387.03	24.2364
387.244	45.31408
387.458	-43.19607
387.672	-15.80464
387.887	36.88273
388.101	-53.73012
388.315	7.37596
388.529	-83.22208
388.743	34.77495
388.957	3.16109
389.171	-55.83685
389.385	9.48343
389.599	51.63784
389.813	49.5299
390.027	-30.55439
390.241	32.66719
390.455	-5.26836
390.669	-13.69743
390.883	13.69845
391.097	66.39408
391.311	17.91356
391.525	-70.58328
391.738	-9.48295
391.952	9.48343
392.166	49.5299
392.38	74.82672
392.594	47.42198
392.808	-95.85994
393.022	-51.62336
393.236	26.34407
393.449	-24.23321
393.663	-11.5902
393.877	-43.19607
394.091	3.16109
394.305	49.5299
394.518	7.37596
394.732	-51.62336
394.946	83.25972
395.16	55.85379
395.373	41.09836
395.587	24.2364
395.801	32.66719
396.015	-66.37014
396.228	1.05369
396.442	17.91356
396.656	15.80599
396.869	-45.30293
397.083	41.09836
397.297	28.45175
397.51	26.34407
397.724	17.91356
397.938	32.66719
398.151	1.05369
398.365	-9.48295
398.578	20.02115
398.792	30.55946
399.005	41.09836
399.219	-32.6614
399.433	-36.87534
399.646	7.37596
399.86	7.37596
400.073	34.77495
400.287	-28.44736
400.5	30.55946
400.714	-17.91182
400.927	-3.16104
401.141	9.48343
401.354	7.37596
401.567	112.77803
401.781	-9.48295
401.994	15.80599
402.208	-26.3403
402.421	-26.3403
402.635	-9.48295
402.848	-51.62336
403.061	-32.6614
403.275	-45.30293
403.488	57.9618
403.701	-34.76838
403.915	-9.48295
404.128	64.28597
404.341	11.59093
404.555	17.91356
404.768	-15.80464
404.981	49.5299
405.195	7.37596
405.408	-51.62336
405.621	51.63784
405.834	-55.83685
406.048	68.5022
406.261	-28.44736
406.474	41.09836
406.687	55.85379
406.9	1.05369
407.114	-51.62336
407.327	57.9618
407.54	-22.12611
407.753	110.66943
407.966	68.5022
408.179	70.61035
408.392	5.26851
408.605	62.17789
408.819	24.2364
409.032	-51.62336
409.245	-43.19607
409.458	89.5847
409.671	-38.98228
409.884	30.55946
410.097	45.31408
410.31	51.63784
410.523	41.09836
410.736	57.9618
410.949	-17.91182
411.162	-51.62336
411.375	3.16109
411.588	-17.91182
411.801	24.2364
412.014	43.20621
412.227	43.20621
412.44	15.80599
412.653	-7.37567
412.865	47.42198
413.078	-3.16104
413.291	-38.98228
413.504	-26.3403
413.717	-11.5902
413.93	66.39408
414.143	74.82672
414.356	-20.01897
414.568	74.82672
414.781	15.80599
414.994	-36.87534
415.207	-32.6614
415.42	20.02115
415.632	-72.68981
415.845	24.2364
416.058	41.09836
416.271	-68.47672
416.483	30.55946
416.696	28.45175
416.909	-64.26353
417.121	49.5299
417.334	43.20621
417.547	34.77495
417.759	1.05369
417.972	49.5299
418.185	24.2364
418.397	-64.26353
418.61	-17.91182
418.823	34.77495
419.035	34.77495
419.248	100.12679
419.46	13.69845
419.673	30.55946
419.885	36.88273
420.098	-66.37014
420.311	-45.30293
420.523	-13.69743
420.736	28.45175
420.948	22.12877
421.161	-49.51657
421.373	-5.26836
421.586	-13.69743
421.798	-17.91182
422.01	-38.98228
422.223	-45.30293
422.435	-3.16104
422.648	9.48343
422.86	36.88273
423.073	9.48343
423.285	-11.5902
423.497	24.2364
423.71	22.12877
423.922	13.69845
424.134	45.31408
424.347	24.2364
424.559	41.09836
424.771	28.45175
424.984	-9.48295
425.196	-17.91182
425.408	-11.5902
425.621	53.7458
425.833	-3.16104
426.045	11.59093
426.257	30.55946
426.47	-24.23321
426.682	-22.12611
426.894	32.66719
427.106	53.7458
427.318	-5.26836
427.531	13.69845
427.743	5.26851
427.955	-1.05368
428.167	-1.05368
428.379	-51.62336
428.591	74.82672
428.804	41.09836
429.016	3.16109
429.228	-1.05368
429.44	11.59093
429.652	28.45175
429.864	116.99528
430.076	-93.7537
430.288	87.47635
430.5	-17.91182
430.712	-97.96616
430.924	-1.05368
431.136	-7.37567
431.348	-30.55439
431.56	-3.16104
431.772	-15.80464
431.984	20.02115
432.196	45.31408
432.408	9.48343
432.62	41.09836
432.832	-7.37567
433.044	-97.96616
433.256	36.88273
433.468	1.05369
433.679	-1.05368
433.891	66.39408
434.103	-51.62336
434.315	7.37596
434.527	41.09836
434.739	-11.5902
434.95	-5.26836
435.162	-60.05024
435.374	30.55946
435.586	-11.5902
435.798	57.9618
436.009	22.12877
436.221	-22.12611
436.433	-11.5902
436.645	72.71852
436.856	-20.01897
437.068	11.59093
437.28	36.88273
437.491	-24.23321
437.703	22.12877
437.915	41.09836
438.126	57.9618
438.338	26.34407
438.55	-9.48295
438.761	-9.48295
438.973	-26.3403
439.184	-26.3403
439.396	41.09836
439.608	49.5299
439.819	36.88273
440.031	3.16109
440.242	-38.98228
440.454	30.55946
440.665	47.42198
440.877	28.45175
441.088	114.88664
441.3	-9.48295
441.511	-13.69743
441.723	-24.23321
441.934	-28.44736
442.146	26.34407
442.357	11.59093
442.569	-9.48295
442.78	-68.47672
442.991	-47.40976
443.203	30.55946
443.414	53.7458
443.626	-30.55439
443.837	3.16109
444.048	-15.80464
444.26	20.02115
444.471	-26.3403
444.682	7.37596
444.894	-17.91182
445.105	-22.12611
445.316	53.7458
445.528	41.09836
445.739	79.04317
445.95	-1.05368
446.161	83.25972
446.373	53.7458
446.584	-9.48295
446.795	22.12877
447.006	36.88273
447.217	-100.07236
447.429	51.63784
447.64	7.37596
447.851	-13.69743
448.062	34.77495
448.273	11.59093
448.484	-38.98228
448.695	24.2364
448.907	57.9618
449.118	-55.83685
449.329	62.17789
449.54	7.37596
449.751	-53.73012
449.962	9.48343
450.173	1.05369
450.384	62.17789
450.595	-17.91182
450.806	41.09836
451.017	57.9618
451.228	-41.08919
451.439	76.93493
451.65	28.45175
451.861	57.9618
452.072	-5.26836
452.283	57.9618
452.494	-34.76838
452.705	24.2364
452.915	3.16109
453.126	3.16109
453.337	41.09836
453.548	-9.48295
453.759	60.06984
453.97	1.05369
454.181	22.12877
454.391	22.12877
454.602	-68.47672
454.813	-7.37567
455.024	53.7458
455.235	36.88273
455.445	28.45175
455.656	74.82672
455.867	45.31408
456.078	-5.26836
456.288	3.16109
456.499	-13.69743
456.71	-64.26353
456.921	-30.55439
457.131	-20.01897
457.342	24.2364
457.553	15.80599
457.763	51.63784
457.974	-17.91182
458.184	45.31408
458.395	32.66719
458.606	-13.69743
458.816	7.37596
459.027	36.88273
459.237	-5.26836
459.448	15.80599
459.659	9.48343
459.869	-45.30293
460.08	-1.05368
460.29	9.48343
460.501	7.37596
460.711	28.45175
460.922	-45.30293
461.132	-34.76838
461.343	-7.37567
461.553	51.63784
461.764	3.16109
461.974	-26.3403
462.184	43.20621
462.395	66.39408
462.605	41.09836
462.816	-7.37567
463.026	9.48343
463.236	85.36802
463.447	15.80599
463.657	-9.48295
463.867	30.55946
464.078	5.26851
464.288	24.2364
464.498	53.7458
464.709	11.59093
464.919	45.31408
465.129	-5.26836
465.339	17.91356
465.55	-43.19607
465.76	-51.62336
465.97	9.48343
466.18	-11.5902
466.391	-87.4348
466.601	41.09836
466.811	-9.48295
467.021	17.91356
467.231	-26.3403
467.441	-1.05368
467.651	-15.80464
467.862	-9.48295
468.072	91.69308
468.282	-26.3403
468.492	-13.69743
468.702	11.59093
468.912	-38.98228
469.122	38.99053
469.332	-9.48295
469.542	24.2364
469.752	-11.5902
469.962	-5.26836
470.172	-5.26836
470.382	17.91356
470.592	45.31408
470.802	24.2364
471.012	-24.23321
471.222	-70.58328
471.432	36.88273
471.642	41.09836
471.852	-26.3403
472.062	1.05369
472.272	-26.3403
472.482	-34.76838
472.691	9.48343
472.901	17.91356
473.111	91.69308
473.321	-64.26353
473.531	-32.6614
473.741	-9.48295
473.95	20.02115
474.16	53.7458
474.37	32.66719
474.58	-11.5902
474.79	7.37596
474.999	17.91356
475.209	-11.5902
475.419	-38.98228
475.628	-22.12611
475.838	-36.87534
476.048	36.88273
476.258	-9.48295
476.467	-7.37567
476.677	-3.16104
476.886	-32.6614
477.096	-17.91182
477.306	60.06984
477.515	-5.26836
477.725	102.23527
477.935	20.02115
478.144	22.12877
478.354	79.04317
478.563	-62.1569
478.773	24.2364
478.982	-28.44736
479.192	7.37596
479.401	-24.23321
479.611	-68.47672
479.82	83.25972
480.03	-30.55439
480.239	9.48343
480.449	85.36802
480.658	-17.91182
480.868	13.69845
481.077	3.16109
481.287	49.5299
481.496	17.91356
481.705	13.69845
481.915	7.37596
482.124	57.9618
482.333	-38.98228
482.543	-7.37567
482.752	49.5299
482.961	-30.55439
483.171	17.91356
483.38	3.16109
483.589	60.06984
483.799	-5.26836
484.008	53.7458
484.217	13.69845
484.426	28.45175
484.636	-5.26836
484.845	13.69845
485.054	45.31408
485.263	1.05369
485.472	-1.05368
485.682	-34.76838
485.891	-3.16104
486.1	-1.05368
486.309	24.2364
486.518	-66.37014
486.727	60.06984
486.936	-13.69743
487.146	20.02115
487.355	62.17789
487.564	66.39408
487.773	-9.48295
487.982	45.31408
488.191	-24.23321
488.4	-60.05024
488.609	-15.80464
488.818	53.7458
489.027	-38.98228
489.236	-36.87534
489.445	20.02115
489.654	-1.05368
489.863	32.66719
490.072	64.28597
490.281	24.2364
490.49	57.9618
490.698	49.5299
490.907	32.66719
491.116	-15.80464
491.325	-17.91182
491.534	7.37596
491.743	83.25972
491.952	-34.76838
492.16	7.37596
492.369	100.12679
492.578	38.99053
492.787	-38.98228
492.996	3.16109
493.204	-41.08919
493.413	5.26851
493.622	45.31408
493.831	43.20621
494.039	7.37596
494.248	3.16109
494.457	57.9618
494.665	83.25972
494.874	36.88273
495.083	38.99053
495.291	28.45175
495.5	-13.69743
495.709	81.15143
495.917	-26.3403
496.126	-38.98228
496.335	-15.80464
496.543	13.69845
496.752	-74.79631
496.96	-24.23321
497.169	41.09836
497.377	32.66719
497.586	1.05369
497.794	57.9618
498.003	-55.83685
498.211	7.37596
498.42	-45.30293
498.628	-20.01897
498.837	41.09836
499.045	24.2364
499.254	30.55946
499.462	34.77495
499.671	-47.40976
499.879	-20.01897
500.087	32.66719
500.296	-1.05368
500.504	-53.73012
500.713	-5.26836
500.921	1.05369
501.129	32.66719
501.338	-68.47672
501.546	9.48343
501.754	55.85379
501.962	1.05369
502.171	36.88273
502.379	3.16109
502.587	-13.69743
502.795	-24.23321
503.004	45.31408
503.212	26.34407
503.42	45.31408
503.628	7.37596
503.837	32.66719
504.045	32.66719
504.253	-32.6614
504.461	15.80599
504.669	-3.16104
504.877	15.80599
505.085	-51.62336
505.294	34.77495
505.502	-49.51657
505.71	26.34407
505.918	7.37596
506.126	-60.05024
506.334	22.12877
506.542	-55.83685
506.75	-51.62336
506.958	17.91356
507.166	41.09836
507.374	57.9618
507.582	24.2364
507.79	20.02115
507.998	17.91356
508.206	-89.54113
508.414	-1.05368
508.622	49.5299
508.83	1.05369
509.037	15.80599
509.245	53.7458
509.453	-36.87534
509.661	-30.55439
509.869	-68.47672
510.077	49.5299
510.285	28.45175
510.492	17.91356
510.7	-72.68981
510.908	13.69845
511.116	17.91356
511.324	41.09836
511.531	53.7458
511.739	-26.3403
511.947	-68.47672
512.155	-9.48295
512.362	89.5847
512.57	15.80599
512.778	1.05369
512.985	41.09836
513.193	-30.55439
513.401	17.91356
513.608	7.37596
513.816	47.42198
514.024	3.16109
514.231	-26.3403
514.439	7.37596
514.646	-3.16104
514.854	3.16109
515.061	-26.3403
515.269	-60.05024
515.477	34.77495
515.684	3.16109
515.892	7.37596
516.099	60.06984
516.307	26.34407
516.514	36.88273
516.722	26.34407
516.929	45.31408
517.136	17.91356
517.344	24.2364
517.551	41.09836
517.759	30.55946
517.966	-17.91182
518.173	-49.51657
518.381	38.99053
518.588	47.42198
518.796	7.37596
519.003	41.09836
519.21	30.55946
519.418	11.59093
519.625	-7.37567
519.832	24.2364
520.039	13.69845
520.247	32.66719
520.454	15.80599
520.661	20.02115
520.868	15.80599
521.076	32.66719
521.283	17.91356
521.49	-1.05368
521.697	43.20621
521.904	-9.48295
522.112	-38.98228
522.319	70.61035
522.526	28.45175
522.733	7.37596
522.94	-62.1569
523.147	9.48343
523.354	-3.16104
523.561	-3.16104
523.768	7.37596
523.975	-11.5902
524.183	-11.5902
524.39	28.45175
524.597	-57.94356
524.804	-26.3403
525.011	22.12877
525.218	-34.76838
525.425	24.2364
525.632	-30.55439
525.838	-9.48295
526.045	41.09836
526.252	34.77495
526.459	38.99053
526.666	17.91356
526.873	-51.62336
527.08	20.02115
527.287	-22.12611
527.494	22.12877
527.701	17.91356
527.907	-38.98228
528.114	13.69845
528.321	79.04317
528.528	-9.48295
528.735	28.45175
528.941	43.20621
529.148	-11.5902
529.355	-11.5902
529.562	-9.48295
529.768	24.2364
529.975	-55.83685
530.182	-68.47672
530.388	24.2364
530.595	-43.19607
530.802	-15.80464
531.008	-15.80464
531.215	-17.91182
531.422	-22.12611
531.628	66.39408
531.835	-34.76838
532.042	83.25972
532.248	32.66719
532.455	-30.55439
532.661	32.66719
532.868	-49.51657
533.074	13.69845
533.281	-3.16104
533.487	-13.69743
533.694	72.71852
533.9	-51.62336
534.107	13.69845
534.313	-15.80464
534.52	66.39408
534.726	9.48343
534.933	-49.51657
535.139	-57.94356
535.345	-9.48295
535.552	-55.83685
535.758	-41.08919
535.965	-9.48295
536.171	43.20621
536.377	83.25972
536.584	-34.76838
536.79	-15.80464
536.996	11.59093
537.203	41.09836
537.409	41.09836
537.615	-15.80464
537.821	11.59093
538.028	-13.69743
538.234	7.37596
538.44	-57.94356
538.646	-45.30293
538.853	49.5299
539.059	41.09836
539.265	-34.76838
539.471	47.42198
539.677	11.59093
539.883	43.20621
540.09	93.80147
540.296	-3.16104
540.502	74.82672
540.708	62.17789
540.914	9.48343
541.12	-24.23321
541.326	20.02115
541.532	15.80599
541.738	49.5299
541.944	15.80599
542.15	-24.23321
542.356	-1.05368
542.562	-60.05024
542.768	-43.19607
542.974	-5.26836
543.18	-24.23321
543.386	-32.6614
543.592	13.69845
543.798	-51.62336
544.004	-32.6614
544.21	-55.83685
544.415	72.71852
544.621	-11.5902
544.827	-74.79631
545.033	-17.91182
545.239	-38.98228
545.445	11.59093
545.651	24.2364
545.856	11.59093
546.062	-51.62336
546.268	7.37596
546.474	3.16109
546.679	49.5299
546.885	38.99053
547.091	55.85379
547.297	-34.76838
547.502	9.48343
547.708	7.37596
547.914	11.59093
548.119	-7.37567
548.325	-1.05368
548.531	24.2364
548.736	-3.16104
548.942	-60.05024
549.147	-1.05368
549.353	-24.23321
549.559	24.2364
549.764	-34.76838
549.97	41.09836
550.175	-81.11567
550.381	34.77495
550.586	-64.26353
550.792	15.80599
550.997	20.02115
551.203	-26.3403
551.408	49.5299
551.614	7.37596
551.819	-17.91182
552.025	26.34407
552.23	-1.05368
552.435	68.5022
552.641	-30.55439
552.846	24.2364
553.052	28.45175
553.257	-38.98228
553.462	43.20621
553.668	-38.98228
553.873	-38.98228
554.078	-34.76838
554.283	20.02115
554.489	7.37596
554.694	34.77495
554.899	15.80599
555.105	68.5022
555.31	-3.16104
555.515	-93.7537
555.72	-34.76838
555.925	34.77495
556.131	30.55946
556.336	26.34407
556.541	-60.05024
556.746	26.34407
556.951	17.91356
557.156	47.42198
557.361	11.59093
557.567	17.91356
557.772	15.80599
557.977	72.71852
558.182	5.26851
558.387	-74.79631
558.592	-17.91182
558.797	45.31408
559.002	-15.80464
559.207	34.77495
559.412	-3.16104
559.617	53.7458
559.822	49.5299
560.027	74.82672
560.232	43.20621
560.437	20.02115
560.642	-51.62336
560.847	34.77495
561.051	24.2364
561.256	-36.87534
561.461	24.2364
561.666	60.06984
561.871	20.02115
562.076	38.99053
562.281	53.7458
562.485	34.77495
562.69	-1.05368
562.895	3.16109
563.1	34.77495
563.305	5.26851
563.509	15.80599
563.714	3.16109
563.919	20.02115
564.123	-20.01897
564.328	-68.47672
564.533	-5.26836
564.737	30.55946
564.942	24.2364
565.147	26.34407
565.351	-1.05368
565.556	-55.83685
565.761	-7.37567
565.965	-22.12611
566.17	-9.48295
566.374	-30.55439
566.579	-66.37014
566.784	11.59093
566.988	-72.68981
567.193	-15.80464
567.397	13.69845
567.602	9.48343
567.806	60.06984
568.011	34.77495
568.215	15.80599
568.42	60.06984
568.624	26.34407
568.828	7.37596
569.033	-26.3403
569.237	-43.19607
569.442	60.06984
569.646	-34.76838
569.85	-24.23321
570.055	-26.3403
570.259	-7.37567
570.463	7.37596
570.668	28.45175
570.872	62.17789
571.076	-17.91182
571.281	-57.94356
571.485	5.26851
571.689	36.88273
571.893	5.26851
572.098	5.26851
572.302	43.20621
572.506	3.16109
572.71	-20.01897
572.914	-5.26836
573.119	-5.26836
573.323	24.2364
573.527	79.04317
573.731	-1.05368
573.935	-13.69743
574.139	24.2364
574.343	-34.76838
574.547	3.16109
574.751	-41.08919
574.955	-15.80464
575.159	-24.23321
575.364	-47.40976
575.568	-24.23321
575.772	11.59093
575.976	41.09836
576.18	34.77495
576.383	51.63784
576.587	-9.48295
576.791	-1.05368
576.995	-13.69743
577.199	-28.44736
577.403	-57.94356
577.607	100.12679
577.811	17.91356
578.015	34.77495
578.219	62.17789
578.422	68.5022
578.626	104.34378
578.83	28.45175
579.034	15.80599
579.238	3.16109
579.442	7.37596
579.645	41.09836
579.849	-1.05368
580.053	72.71852
580.257	36.88273
580.46	34.77495
580.664	15.80599
580.868	7.37596
581.071	-43.19607
581.275	-1.05368
581.479	41.09836
581.682	-11.5902
581.886	24.2364
582.09	7.37596
582.293	-22.12611
582.497	49.5299
582.7	28.45175
582.904	-24.23321
583.107	17.91356
583.311	13.69845
583.515	-43.19607
583.718	68.5022
583.922	-15.80464
584.125	-9.48295
584.329	-13.69743
584.532	74.82672
584.735	-1.05368
584.939	66.39408
585.142	55.85379
585.346	7.37596
585.549	-43.19607
585.753	87.47635
585.956	41.09836
586.159	62.17789
586.363	-13.69743
586.566	15.80599
586.769	15.80599
586.973	3.16109
587.176	30.55946
587.379	-24.23321
587.582	-5.26836
587.786	-76.90279
587.989	41.09836
588.192	57.9618
588.395	-72.68981
588.599	49.5299
588.802	20.02115
589.005	55.85379
589.208	-11.5902
589.411	-38.98228
589.615	13.69845
589.818	66.39408
590.021	57.9618
590.224	68.5022
590.427	-3.16104
590.63	-17.91182
590.833	68.5022
591.036	7.37596
591.239	51.63784
591.442	-34.76838
591.645	32.66719
591.848	20.02115
592.051	26.34407
592.254	28.45175
592.457	49.5299
592.66	-7.37567
592.863	98.01833
593.066	-3.16104
593.269	-5.26836
593.472	17.91356
593.675	22.12877
593.878	57.9618
594.081	-32.6614
594.284	13.69845
594.486	-15.80464
594.689	5.26851
594.892	74.82672
595.095	32.66719
595.298	15.80599
595.5	-24.23321
595.703	-1.05368
595.906	32.66719
596.109	1.05369
596.311	9.48343
596.514	-5.26836
596.717	-51.62336
596.92	11.59093
597.122	20.02115
597.325	66.39408
597.528	28.45175
597.73	-9.48295
597.933	28.45175
598.136	-1.05368
598.338	15.80599
598.541	24.2364
598.743	-22.12611
598.946	17.91356
599.148	-51.62336
599.351	20.02115
599.554	24.2364
599.756	-26.3403
599.959	66.39408
600.161	36.88273
600.363	20.02115
600.566	60.06984
600.768	5.26851
600.971	-30.55439
601.173	11.59093
601.376	-15.80464
601.578	34.77495
601.78	76.93493
601.983	-26.3403
602.185	30.55946
602.388	32.66719
602.59	-9.48295
602.792	70.61035
602.995	68.5022
603.197	32.66719
603.399	-11.5902
603.601	-36.87534
603.804	72.71852
604.006	-9.48295
604.208	-34.76838
604.41	26.34407
604.613	49.5299
604.815	38.99053
605.017	74.82672
605.219	93.80147
605.421	15.80599
605.623	-1.05368
605.826	-30.55439
606.028	-17.91182
606.23	-30.55439
606.432	36.88273
606.634	-7.37567
606.836	20.02115
607.038	-49.51657
607.24	53.7458
607.442	-30.55439
607.644	45.31408
607.846	32.66719
608.048	-64.26353
608.25	93.80147
608.452	15.80599
608.654	-38.98228
608.856	49.5299
609.058	32.66719
609.26	24.2364
609.462	-13.69743
609.664	57.9618
609.866	83.25972
610.067	28.45175
610.269	-22.12611
610.471	108.56086
610.673	49.5299
610.875	-1.05368
611.077	-32.6614
611.278	-1.05368
611.48	15.80599
611.682	-43.19607
611.884	30.55946
612.085	49.5299
612.287	-38.98228
612.489	-24.23321
612.69	22.12877
612.892	55.85379
613.094	-83.22208
613.295	-17.91182
613.497	-28.44736
613.699	15.80599
613.9	-24.23321
614.102	-17.91182
614.304	-34.76838
614.505	17.91356
614.707	-3.16104
614.908	-55.83685
615.11	45.31408
615.311	-5.26836
615.513	34.77495
615.714	74.82672
615.916	60.06984
616.117	-17.91182
616.319	-22.12611
616.52	-9.48295
616.722	-9.48295
616.923	-70.58328
617.124	3.16109
617.326	-38.98228
617.527	7.37596
617.729	26.34407
617.93	81.15143
618.131	-7.37567
618.333	-9.48295
618.534	41.09836
618.735	11.59093
618.937	85.36802
619.138	-24.23321
619.339	28.45175
619.54	-9.48295
619.742	41.09836
619.943	-41.08919
620.144	-15.80464
620.345	13.69845
620.546	81.15143
620.748	32.66719
620.949	24.2364
621.15	-89.54113
621.351	34.77495
621.552	76.93493
621.753	-55.83685
621.954	-3.16104
622.155	-15.80464
622.356	34.77495
622.558	-1.05368
622.759	38.99053
622.96	43.20621
623.161	-5.26836
623.362	9.48343
623.563	3.16109
623.764	-26.3403
623.965	26.34407
624.166	15.80599
624.366	15.80599
624.567	-9.48295
624.768	45.31408
624.969	3.16109
625.17	41.09836
625.371	26.34407
625.572	-34.76838
625.773	-20.01897
625.973	22.12877
626.174	-11.5902
626.375	30.55946
626.576	36.88273
626.777	-26.3403
626.977	-43.19607
627.178	-11.5902
627.379	-17.91182
627.58	-26.3403
627.78	41.09836
627.981	-43.19607
628.182	-17.91182
628.382	30.55946
628.583	24.2364
628.784	-49.51657
628.984	9.48343
629.185	15.80599
629.386	43.20621
629.586	-45.30293
629.787	-13.69743
629.987	15.80599
630.188	1.05369
630.388	72.71852
630.589	-43.19607
630.79	7.37596
630.99	20.02115
631.191	-15.80464
631.391	-68.47672
631.591	26.34407
631.792	79.04317
631.992	-5.26836
632.193	74.82672
632.393	-57.94356
632.594	-13.69743
632.794	20.02115
632.994	3.16109
633.195	-9.48295
633.395	3.16109
633.595	-49.51657
633.796	9.48343
633.996	57.9618
634.196	24.2364
634.397	22.12877
634.597	-45.30293
634.797	-26.3403
634.997	-47.40976
635.198	-22.12611
635.398	-15.80464
635.598	-49.51657
635.798	-17.91182
635.998	-15.80464
636.199	-20.01897
636.399	-26.3403
636.599	17.91356
636.799	55.85379
636.999	47.42198
637.199	30.55946
637.399	-15.80464
637.599	-55.83685
637.799	108.56086
637.999	47.42198
638.199	17.91356
638.399	45.31408
638.599	11.59093
638.799	-57.94356
638.999	123.32132
639.199	41.09836
639.399	43.20621
639.599	53.7458
639.799	28.45175
639.999	-7.37567
640.199	17.91356
640.399	32.66719
640.599	-1.05368
640.799	-13.69743
640.998	24.2364
641.198	38.99053
641.398	17.91356
641.598	68.5022
641.798	32.66719
641.997	-24.23321
642.197	11.59093
642.397	-100.07236
642.597	-26.3403
642.796	-34.76838
642.996	1.05369
643.196	15.80599
643.395	-51.62336
643.595	-32.6614
643.795	-3.16104
643.994	-55.83685
644.194	-5.26836
644.394	70.61035
644.593	5.26851
644.793	-32.6614
644.992	9.48343
645.192	32.66719
645.392	43.20621
645.591	15.80599
645.791	104.34378
645.99	-38.98228
646.19	28.45175
646.389	26.34407
646.589	13.69845
646.788	-22.12611
646.987	22.12877
647.187	30.55946
647.386	-3.16104
647.586	85.36802
647.785	-7.37567
647.984	7.37596
648.184	-49.51657
648.383	26.34407
648.582	-28.44736
648.782	-1.05368
648.981	-32.6614
649.18	26.34407
649.38	3.16109
649.579	-17.91182
649.778	-1.05368
649.977	32.66719
650.177	-5.26836
650.376	-5.26836
650.575	-9.48295
650.774	28.45175
650.973	79.04317
651.173	11.59093
651.372	24.2364
651.571	41.09836
651.77	70.61035
651.969	74.82672
652.168	-1.05368
652.367	1.05369
652.566	36.88273
652.765	24.2364
652.964	-49.51657
653.163	7.37596
653.362	43.20621
653.561	-1.05368
653.76	3.16109
653.959	32.66719
654.158	41.09836
654.357	57.9618
654.556	32.66719
654.755	28.45175
654.954	26.34407
655.153	81.15143
655.352	11.59093
655.551	68.5022
655.749	1.05369
655.948	3.16109
656.147	-15.80464
656.346	-34.76838
656.545	9.48343
656.743	-60.05024
656.942	-20.01897
657.141	-43.19607
657.34	43.20621
657.538	-7.37567
657.737	57.9618
657.936	51.63784
658.135	-5.26836
658.333	1.05369
658.532	9.48343
658.731	20.02115
658.929	68.5022
659.128	28.45175
659.326	17.91356
659.525	49.5299
659.724	9.48343
659.922	-26.3403
660.121	53.7458
660.319	-81.11567
660.518	-43.19607
660.716	-38.98228
660.915	-9.48295
661.113	-1.05368
661.312	41.09836
661.51	-13.69743
661.709	5.26851
661.907	-72.68981
662.105	1.05369
662.304	36.88273
662.502	-5.26836
662.701	22.12877
662.899	-1.05368
663.097	9.48343
663.296	-1.05368
663.494	30.55946
663.692	55.85379
663.891	-38.98228
664.089	-1.05368
664.287	15.80599
664.485	11.59093
664.684	-26.3403
664.882	-1.05368
665.08	-20.01897
665.278	-34.76838
665.476	-38.98228
665.675	15.80599
665.873	-24.23321
666.071	85.36802
666.269	-51.62336
666.467	-68.47672
666.665	47.42198
666.863	34.77495
667.061	-30.55439
667.259	57.9618
667.457	36.88273
667.655	-30.55439
667.853	17.91356
668.051	11.59093
668.249	51.63784
668.447	-55.83685
668.645	41.09836
668.843	70.61035
669.041	60.06984
669.239	24.2364
669.437	-76.90279
669.635	93.80147
669.833	11.59093
670.031	20.02115
670.229	13.69845
670.426	-1.05368
670.624	7.37596
670.822	20.02115
671.02	-5.26836
671.218	66.39408
671.415	-60.05024
671.613	3.16109
671.811	15.80599
672.009	55.85379
672.206	15.80599
672.404	-26.3403
672.602	-26.3403
672.799	-9.48295
672.997	70.61035
673.195	-9.48295
673.392	-116.92096
673.59	116.99528
673.788	-24.23321
673.985	7.37596
674.183	-43.19607
674.38	-13.69743
674.578	24.2364
674.775	11.59093
674.973	-17.91182
675.17	57.9618
675.368	55.85379
675.565	-57.94356
675.763	15.80599
675.96	-83.22208
676.158	-9.48295
676.355	-15.80464
676.553	13.69845
676.75	-7.37567
676.947	36.88273
677.145	38.99053
677.342	-1.05368
677.539	34.77495
677.737	104.34378
677.934	20.02115
678.131	62.17789
678.329	-38.98228
678.526	-38.98228
678.723	38.99053
678.92	30.55946
679.118	32.66719
679.315	-5.26836
679.512	70.61035
679.709	3.16109
679.906	15.80599
680.104	36.88273
680.301	60.06984
680.498	3.16109
680.695	3.16109
680.892	7.37596
681.089	-1.05368
681.286	-28.44736
681.483	43.20621
681.68	22.12877
681.877	-36.87534
682.075	-9.48295
682.272	-5.26836
682.469	66.39408
682.665	-76.90279
682.862	100.12679
683.059	20.02115
683.256	-43.19607
683.453	24.2364
683.65	-11.5902
683.847	47.42198
684.044	-34.76838
684.241	-43.19607
684.438	-9.48295
684.635	-3.16104
684.831	47.42198
685.028	15.80599
685.225	15.80599
685.422	-57.94356
685.619	-51.62336
685.815	7.37596
686.012	1.05369
686.209	-34.76838
686.405	15.80599
686.602	1.05369
686.799	41.09836
686.996	-114.81498
687.192	17.91356
687.389	62.17789
687.586	5.26851
687.782	-34.76838
687.979	-51.62336
688.175	-57.94356
688.372	17.91356
688.568	-3.16104
688.765	76.93493
688.962	24.2364
689.158	17.91356
689.355	-20.01897
689.551	66.39408
689.748	41.09836
689.944	22.12877
690.14	-38.98228
690.337	-13.69743
690.533	17.91356
690.73	1.05369
690.926	5.26851
691.123	-28.44736
691.319	-13.69743
691.515	85.36802
691.712	70.61035
691.908	11.59093
692.104	106.45231
692.301	60.06984
692.497	98.01833
692.693	-49.51657
692.889	-9.48295
693.086	17.91356
693.282	74.82672
693.478	-20.01897
693.674	-57.94356
693.87	41.09836
694.067	85.36802
694.263	-41.08919
694.459	-13.69743
694.655	7.37596
694.851	3.16109
695.047	5.26851
695.243	22.12877
695.439	-26.3403
695.635	-11.5902
695.831	-30.55439
696.027	32.66719
696.224	11.59093
696.42	32.66719
696.615	-34.76838
696.811	15.80599
697.007	64.28597
697.203	62.17789
697.399	15.80599
697.595	-66.37014
697.791	45.31408
697.987	-49.51657
698.183	-7.37567
698.379	-15.80464
698.575	47.42198
698.77	-57.94356
698.966	-22.12611
699.162	1.05369
699.358	60.06984
699.554	15.80599
699.749	-13.69743
699.945	-68.47672
700.141	-22.12611
700.337	-17.91182
700.532	-30.55439
700.728	-1.05368
700.924	7.37596
701.119	45.31408
701.315	45.31408
701.511	60.06984
701.706	-9.48295
701.902	-34.76838
702.097	-36.87534
702.293	76.93493
702.489	32.66719
702.684	41.09836
702.88	-51.62336
703.075	41.09836
703.271	1.05369
703.466	-45.30293
703.662	22.12877
703.857	-9.48295
704.053	-9.48295
704.248	7.37596
704.443	26.34407
704.639	-85.32845
704.834	7.37596
705.03	-17.91182
705.225	76.93493
705.42	-24.23321
705.616	7.37596
705.811	60.06984
706.006	-26.3403
706.202	30.55946
706.397	9.48343
706.592	34.77495
706.787	-34.76838
706.983	-11.5902
707.178	-3.16104
707.373	3.16109
707.568	28.45175
707.763	49.5299
707.959	-1.05368
708.154	-36.87534
708.349	60.06984
708.544	60.06984
708.739	-51.62336
708.934	-24.23321
709.129	-60.05024
709.324	32.66719
709.519	-38.98228
709.714	-22.12611
709.909	-17.91182
710.104	53.7458
710.299	43.20621
710.494	98.01833
710.689	-24.23321
710.884	-11.5902
711.079	-26.3403
711.274	20.02115
711.469	-15.80464
711.664	45.31408
711.859	-30.55439
712.054	-68.47672
712.249	20.02115
712.443	15.80599
712.638	85.36802
712.833	24.2364
713.028	43.20621
713.223	-81.11567
713.417	28.45175
713.612	1.05369
713.807	-60.05024
714.002	26.34407
714.196	-15.80464
714.391	-17.91182
714.586	38.99053
714.78	-5.26836
714.975	24.2364
715.17	32.66719
715.364	-68.47672
715.559	-20.01897
715.754	93.80147
715.948	116.99528
716.143	-41.08919
716.337	-11.5902
716.532	-15.80464
716.726	-34.76838
716.921	-1.05368
717.115	43.20621
717.31	15.80599
717.504	-32.6614
717.699	15.80599
717.893	7.37596
718.088	7.37596
718.282	64.28597
718.476	11.59093
718.671	57.9618
718.865	-34.76838
719.059	-72.68981
719.254	-5.26836
719.448	-7.37567
719.642	-45.30293
719.837	5.26851
720.031	28.45175
720.225	-30.55439
720.419	53.7458
720.614	11.59093
720.808	24.2364
721.002	7.37596
721.196	-5.26836
721.39	1.05369
721.585	53.7458
721.779	-34.76838
721.973	30.55946
722.167	55.85379
722.361	5.26851
722.555	-9.48295
722.749	62.17789
722.943	-30.55439
723.137	-1.05368
723.331	-43.19607
723.525	49.5299
723.719	-24.23321
723.913	-22.12611
724.107	-9.48295
724.301	49.5299
724.495	9.48343
724.689	-5.26836
724.883	24.2364
725.077	41.09836
725.271	38.99053
725.465	-51.62336
725.659	-47.40976
725.853	-22.12611
726.046	22.12877
726.24	-17.91182
726.434	70.61035
726.628	24.2364
726.822	-5.26836
727.015	5.26851
727.209	-36.87534
727.403	68.5022
727.596	-62.1569
727.79	34.77495
727.984	-26.3403
728.177	22.12877
728.371	-1.05368
728.565	36.88273
728.758	91.69308
728.952	-41.08919
729.146	32.66719
729.339	22.12877
729.533	91.69308
729.726	57.9618
729.92	-26.3403
730.113	20.02115
730.307	20.02115
730.5	-36.87534
730.694	-51.62336
730.887	-43.19607
731.081	-24.23321
731.274	1.05369
731.468	-5.26836
731.661	102.23527
731.854	43.20621
732.048	9.48343
732.241	43.20621
732.435	-22.12611
732.628	-1.05368
732.821	32.66719
733.014	43.20621
733.208	-47.40976
733.401	7.37596
733.594	-41.08919
733.788	85.36802
733.981	104.34378
734.174	-85.32845
734.367	-15.80464
734.56	17.91356
734.754	-20.01897
734.947	83.25972
735.14	-38.98228
735.333	3.16109
735.526	-91.64742
735.719	-32.6614
735.912	-13.69743
736.105	-43.19607
736.298	79.04317
736.491	-24.23321
736.684	17.91356
736.877	28.45175
737.07	57.9618
737.263	15.80599
737.456	91.69308
737.649	-30.55439
737.842	-7.37567
738.035	13.69845
738.228	-49.51657
738.421	-41.08919
738.614	-5.26836
738.807	28.45175
739	-123.23875
739.192	17.91356
739.385	24.2364
739.578	-36.87534
739.771	41.09836
739.964	-17.91182
740.156	20.02115
740.349	-34.76838
740.542	-1.05368
740.735	-13.69743
740.927	-13.69743
741.12	3.16109
741.313	72.71852
741.505	-13.69743
741.698	9.48343
741.891	1.05369
742.083	5.26851
742.276	-34.76838
742.468	-53.73012
742.661	51.63784
742.854	-24.23321
743.046	-47.40976
743.239	45.31408
743.431	43.20621
743.624	-9.48295
743.816	26.34407
744.009	-36.87534
744.201	62.17789
744.393	20.02115
744.586	-57.94356
744.778	-7.37567
744.971	17.91356
745.163	20.02115
745.355	68.5022
745.548	-7.37567
745.74	-9.48295
745.932	41.09836
746.125	74.82672
746.317	-53.73012
746.509	-24.23321
746.702	-13.69743
746.894	-1.05368
747.086	-68.47672
747.278	-9.48295
747.471	64.28597
747.663	-11.5902
747.855	-30.55439
748.047	57.9618
748.239	30.55946
748.431	-34.76838
748.623	-55.83685
748.815	55.85379
749.008	17.91356
749.2	53.7458
749.392	55.85379
749.584	49.5299
749.776	-36.87534
749.968	-38.98228
750.16	70.61035
750.352	24.2364
750.544	-55.83685
750.736	-26.3403
750.928	-15.80464
751.12	34.77495
751.311	17.91356
751.503	-17.91182
751.695	45.31408
751.887	20.02115
752.079	-26.3403
752.271	64.28597
752.463	24.2364
752.654	-66.37014
752.846	15.80599
753.038	47.42198
753.23	5.26851
753.421	43.20621
753.613	5.26851
753.805	11.59093
753.997	-17.91182
754.188	17.91356
754.38	49.5299
754.572	-9.48295
754.763	-36.87534
754.955	-85.32845
755.146	34.77495
755.338	-28.44736
755.53	13.69845
755.721	-1.05368
755.913	-15.80464
756.104	-17.91182
756.296	41.09836
756.487	43.20621
756.679	-5.26836
756.87	-34.76838
757.062	79.04317
757.253	9.48343
757.445	-68.47672
757.636	45.31408
757.827	-34.76838
758.019	-20.01897
758.21	-30.55439
758.401	-9.48295
758.593	-47.40976
758.784	17.91356
758.975	51.63784
759.167	11.59093
759.358	-32.6614
759.549	1.05369
759.74	53.7458
759.932	32.66719
760.123	-45.30293
760.314	26.34407
760.505	60.06984
760.696	-36.87534
760.888	13.69845
761.079	-47.40976
761.27	-17.91182
761.461	9.48343
761.652	-15.80464
761.843	24.2364
762.034	-43.19607
762.225	57.9618
762.416	24.2364
762.607	-24.23321
762.798	-13.69743
762.989	-11.5902
763.18	-22.12611
763.371	17.91356
763.562	13.69845
763.753	11.59093
763.944	-57.94356
764.135	-55.83685
764.326	-5.26836
764.517	1.05369
764.708	-36.87534
764.899	51.63784
765.089	89.5847
765.28	7.37596
765.471	68.5022
765.662	24.2364
765.853	1.05369
766.043	32.66719
766.234	51.63784
766.425	7.37596
766.615	-22.12611
766.806	-15.80464
766.997	-11.5902
767.187	-34.76838
767.378	-13.69743
767.569	-9.48295
767.759	30.55946
767.95	-1.05368
768.141	22.12877
768.331	-26.3403
768.522	41.09836
768.712	34.77495
768.903	74.82672
769.093	-5.26836
769.284	-36.87534
769.474	43.20621
769.665	9.48343
769.855	72.71852
770.046	28.45175
770.236	-17.91182
770.426	-15.80464
770.617	1.05369
770.807	49.5299
770.998	-1.05368
771.188	43.20621
771.378	1.05369
771.569	-15.80464
771.759	-38.98228
771.949	-66.37014
772.139	45.31408
772.33	-38.98228
772.52	43.20621
772.71	-89.54113
772.9	-9.48295
773.09	53.7458
773.281	7.37596
773.471	3.16109
773.661	-47.40976
773.851	-20.01897
774.041	102.23527
774.231	-43.19607
774.421	-3.16104
774.611	34.77495
774.802	7.37596
774.992	-7.37567
775.182	-41.08919
775.372	11.59093
775.562	-22.12611
775.752	32.66719
775.942	-15.80464
776.131	-5.26836
776.321	-9.48295
776.511	-1.05368
776.701	36.88273
776.891	-51.62336
777.081	-7.37567
777.271	-17.91182
777.461	20.02115
777.651	11.59093
777.84	41.09836
778.03	-28.44736
778.22	-26.3403
778.41	-17.91182
778.599	70.61035
778.789	-30.55439
778.979	-55.83685
779.169	38.99053
779.358	7.37596
779.548	-32.6614
779.738	-5.26836
779.927	45.31408
780.117	11.59093
780.307	-24.23321
780.496	43.20621
780.686	7.37596
780.875	13.69845
781.065	62.17789
781.254	72.71852
781.444	-20.01897
781.633	3.16109
781.823	-5.26836
782.012	-17.91182
782.202	-53.73012
782.391	-7.37567
782.581	-38.98228
782.77	-7.37567
782.96	-36.87534
783.149	-34.76838
783.338	74.82672
783.528	66.39408
783.717	45.31408
783.906	49.5299
784.096	20.02115
784.285	5.26851
784.474	-1.05368
784.663	3.16109
784.853	24.2364
785.042	3.16109
785.231	-43.19607
785.42	28.45175
785.61	43.20621
785.799	-13.69743
785.988	-30.55439
786.177	-24.23321
786.366	-26.3403
786.555	-24.23321
786.744	-13.69743
786.933	3.16109
787.122	-34.76838
787.312	28.45175
787.501	62.17789
787.69	26.34407
787.879	85.36802
788.068	110.66943
788.257	43.20621
788.445	-30.55439
788.634	3.16109
788.823	15.80599
789.012	-30.55439
789.201	5.26851
789.39	-43.19607
789.579	-17.91182
789.768	-9.48295
789.957	-20.01897
790.145	-1.05368
790.334	5.26851
790.523	-17.91182
790.712	1.05369
790.9	-87.4348
791.089	-9.48295
791.278	-60.05024
791.467	45.31408
791.655	-24.23321
791.844	11.59093
792.033	7.37596
792.221	3.16109
792.41	-5.26836
792.599	17.91356
792.787	11.59093
792.976	-1.05368
793.164	24.2364
793.353	17.91356
793.541	28.45175
793.73	-38.98228
793.918	20.02115
794.107	1.05369
794.295	-26.3403
794.484	43.20621
794.672	-34.76838
794.861	49.5299
795.049	36.88273
795.238	-32.6614
795.426	-20.01897
795.614	-20.01897
795.803	30.55946
795.991	62.17789
796.179	-9.48295
796.368	-15.80464
796.556	55.85379
796.744	-41.08919
796.932	3.16109
797.121	28.45175
797.309	60.06984
797.497	28.45175
797.685	-3.16104
797.874	-62.1569
798.062	32.66719
798.25	-5.26836
798.438	17.91356
798.626	-20.01897
798.814	49.5299
799.002	-43.19607
799.19	-24.23321
799.378	36.88273
799.566	43.20621
799.755	83.25972
799.943	-36.87534
800.131	-9.48295
800.318	-9.48295
800.506	7.37596
800.694	-5.26836
800.882	20.02115
801.07	22.12877
801.258	55.85379
801.446	-1.05368
801.634	34.77495
801.822	-15.80464
802.01	-64.26353
802.197	-43.19607
802.385	-38.98228
802.573	-26.3403
802.761	-9.48295
802.949	-43.19607
803.136	28.45175
803.324	-9.48295
803.512	-9.48295
803.699	9.48343
803.887	-47.40976
804.075	11.59093
804.262	34.77495
804.45	-13.69743
804.638	-26.3403
804.825	-30.55439
805.013	49.5299
805.201	26.34407
805.388	38.99053
805.576	-45.30293
805.763	-13.69743
805.951	-38.98228
806.138	3.16109
806.326	22.12877
806.513	-38.98228
806.701	-64.26353
806.888	95.90989
807.075	13.69845
807.263	1.05369
807.45	-1.05368
807.638	45.31408
807.825	11.59093
808.012	57.9618
808.2	51.63784
808.387	7.37596
808.574	-9.48295
808.761	-5.26836
808.949	64.28597
809.136	-3.16104
809.323	-17.91182
809.51	-53.73012
809.698	-22.12611
809.885	26.34407
810.072	-24.23321
810.259	87.47635
810.446	28.45175
810.633	20.02115
810.82	57.9618
811.008	15.80599
811.195	-17.91182
811.382	-5.26836
811.569	-60.05024
811.756	15.80599
811.943	41.09836
812.13	34.77495
812.317	-49.51657
812.504	-9.48295
812.691	-45.30293
812.878	1.05369
813.064	-9.48295
813.251	3.16109
813.438	-5.26836
813.625	-64.26353
813.812	1.05369
813.999	51.63784
814.186	24.2364
814.372	-26.3403
814.559	43.20621
814.746	28.45175
814.933	51.63784
815.12	-28.44736
815.306	36.88273
815.493	81.15143
815.68	20.02115
815.866	28.45175
816.053	36.88273
816.24	11.59093
816.426	-43.19607
816.613	45.31408
816.799	28.45175
816.986	53.7458
817.173	36.88273
817.359	17.91356
817.546	-47.40976
817.732	9.48343
817.919	49.5299
818.105	-87.4348
818.292	24.2364
818.478	-1.05368
818.665	-17.91182
818.851	47.42198
819.037	15.80599
819.224	-5.26836
819.41	-7.37567
819.597	55.85379
819.783	3.16109
819.969	32.66719
820.156	51.63784
820.342	-41.08919
820.528	13.69845
820.714	26.34407
820.901	11.59093
821.087	-9.48295
821.273	-13.69743
821.459	-47.40976
821.646	15.80599
821.832	-1.05368
822.018	-64.26353
822.204	41.09836
822.39	-17.91182
822.576	-89.54113
822.762	-7.37567
822.948	-3.16104
823.134	-89.54113
823.32	-7.37567
823.507	-28.44736
823.693	26.34407
823.879	-9.48295
824.065	-53.73012
824.25	3.16109
824.436	-1.05368
824.622	-26.3403
824.808	-57.94356
824.994	-41.08919
825.18	47.42198
825.366	15.80599
825.552	-32.6614
825.738	41.09836
825.923	22.12877
826.109	-47.40976
826.295	43.20621
826.481	-32.6614
826.667	-38.98228
826.852	-13.69743
827.038	15.80599
827.224	5.26851
827.409	11.59093
827.595	13.69845
827.781	7.37596
827.966	9.48343
828.152	13.69845
828.338	-5.26836
828.523	-9.48295
828.709	-13.69743
828.894	-30.55439
829.08	-38.98228
829.266	-51.62336
829.451	83.25972
829.637	32.66719
829.822	5.26851
830.008	45.31408
830.193	20.02115
830.378	24.2364
830.564	-28.44736
830.749	-13.69743
830.935	-100.07236
831.12	51.63784
831.305	20.02115
831.491	24.2364
831.676	-7.37567
831.861	-13.69743
832.047	-5.26836
832.232	45.31408
832.417	76.93493
832.602	70.61035
832.788	28.45175
832.973	7.37596
833.158	32.66719
833.343	-26.3403
833.528	-74.79631
833.714	41.09836
833.899	-9.48295
834.084	11.59093
834.269	-76.90279
834.454	-11.5902
834.639	-38.98228
834.824	-49.51657
835.009	34.77495
835.194	22.12877
835.379	-47.40976
835.564	34.77495
835.749	-9.48295
835.934	-60.05024
836.119	-9.48295
836.304	51.63784
836.489	7.37596
836.674	-30.55439
836.859	-1.05368
837.044	26.34407
837.228	41.09836
837.413	-30.55439
837.598	57.9618
837.783	57.9618
837.968	-15.80464
838.152	1.05369
838.337	51.63784
838.522	-24.23321
838.707	41.09836
838.891	-64.26353
839.076	30.55946
839.261	36.88273
839.445	43.20621
839.63	17.91356
839.815	41.09836
839.999	-11.5902
840.184	-1.05368
840.368	89.5847
840.553	-20.01897
840.737	20.02115
840.922	-26.3403
841.106	45.31408
841.291	-7.37567
841.475	-45.30293
841.66	17.91356
841.844	49.5299
842.029	-3.16104
842.213	20.02115
842.397	62.17789
842.582	7.37596
842.766	-62.1569
842.951	32.66719
843.135	68.5022
843.319	104.34378
843.504	-3.16104
843.688	-22.12611
843.872	-43.19607
844.056	-9.48295
844.241	-7.37567
844.425	9.48343
844.609	108.56086
844.793	-57.94356
844.977	47.42198
845.161	43.20621
845.346	66.39408
845.53	-53.73012
845.714	-74.79631
845.898	-47.40976
846.082	-36.87534
846.266	-28.44736
846.45	-36.87534
846.634	-22.12611
846.818	-1.05368
847.002	3.16109
847.186	15.80599
847.37	15.80599
847.554	-1.05368
847.738	7.37596
847.922	-3.16104
848.106	15.80599
848.29	-17.91182
848.473	51.63784
848.657	-38.98228
848.841	-20.01897
849.025	34.77495
849.209	70.61035
849.392	-17.91182
849.576	-22.12611
849.76	32.66719
849.944	34.77495
850.127	-60.05024
850.311	30.55946
850.495	-26.3403
850.678	7.37596
850.862	-20.01897
851.046	76.93493
851.229	24.2364
851.413	15.80599
851.596	11.59093
851.78	32.66719
851.964	34.77495
852.147	-38.98228
852.331	-28.44736
852.514	53.7458
852.698	70.61035
852.881	11.59093
853.065	28.45175
853.248	-51.62336
853.431	57.9618
853.615	49.5299
853.798	-17.91182
853.982	30.55946
854.165	24.2364
854.348	43.20621
854.532	-38.98228
854.715	-17.91182
854.898	24.2364
855.081	-85.32845
855.265	-17.91182
855.448	3.16109
855.631	47.42198
855.814	-1.05368
855.997	7.37596
856.181	-11.5902
856.364	-62.1569
856.547	28.45175
856.73	-41.08919
856.913	-43.19607
857.096	-26.3403
857.279	-1.05368
857.462	-38.98228
857.645	9.48343
857.828	-62.1569
858.011	-89.54113
858.194	41.09836
858.377	-1.05368
858.56	15.80599
858.743	57.9618
858.926	-5.26836
859.109	24.2364
859.292	74.82672
859.475	64.28597
859.658	17.91356
859.841	-68.47672
860.023	-5.26836
860.206	-57.94356
860.389	41.09836
860.572	-47.40976
860.755	-62.1569
860.937	-22.12611
861.12	41.09836
861.303	-24.23321
861.486	9.48343
861.668	51.63784
861.851	-24.23321
862.034	32.66719
862.216	57.9618
862.399	3.16109
862.581	1.05369
862.764	-7.37567
862.947	89.5847
863.129	-55.83685
863.312	3.16109
863.494	15.80599
863.677	49.5299
863.859	-22.12611
864.042	-3.16104
864.224	-11.5902
864.406	-34.76838
864.589	36.88273
864.771	-1.05368
864.954	-9.48295
865.136	-1.05368
865.318	66.39408
865.501	-5.26836
865.683	5.26851
865.865	-32.6614
866.048	11.59093
866.23	15.80599
866.412	-28.44736
866.594	-1.05368
866.777	-34.76838
866.959	-5.26836
867.141	36.88273
867.323	62.17789
867.505	68.5022
867.687	-22.12611
867.869	41.09836
868.052	20.02115
868.234	24.2364
868.416	41.09836
868.598	7.37596
868.78	34.77495
868.962	32.66719
869.144	1.05369
869.326	-30.55439
869.508	-66.37014
869.69	83.25972
869.872	1.05369
870.054	5.26851
870.236	11.59093
870.417	70.61035
870.599	-1.05368
870.781	-34.76838
870.963	17.91356
871.145	-20.01897
871.327	-13.69743
871.508	-76.90279
871.69	-13.69743
871.872	32.66719
872.054	28.45175
872.235	-30.55439
872.417	-26.3403
872.599	-28.44736
872.78	7.37596
872.962	-24.23321
873.144	62.17789
873.325	41.09836
873.507	-60.05024
873.689	-34.76838
873.87	-68.47672
874.052	-1.05368
874.233	7.37596
874.415	13.69845
874.596	24.2364
874.778	11.59093
874.959	34.77495
875.141	11.59093
875.322	43.20621
875.503	-43.19607
875.685	-7.37567
875.866	45.31408
876.048	15.80599
876.229	-32.6614
876.41	26.34407
876.592	7.37596
876.773	-7.37567
876.954	41.09836
877.136	24.2364
877.317	-51.62336
877.498	1.05369
877.679	11.59093
877.86	-15.80464
878.042	-26.3403
878.223	-7.37567
878.404	15.80599
878.585	-34.76838
878.766	53.7458
878.947	5.26851
879.128	17.91356
879.309	-41.08919
879.49	60.06984
879.672	36.88273
879.853	-7.37567
880.034	-38.98228
880.215	15.80599
880.396	66.39408
880.576	20.02115
880.757	-13.69743
880.938	-13.69743
881.119	-7.37567
881.3	43.20621
881.481	-43.19607
881.662	-1.05368
881.843	-26.3403
882.023	-24.23321
882.204	-13.69743
882.385	68.5022
882.566	7.37596
882.747	55.85379
882.927	83.25972
883.108	-70.58328
883.289	20.02115
883.469	-13.69743
883.65	-9.48295
883.831	45.31408
884.011	-17.91182
884.192	20.02115
884.373	-34.76838
884.553	15.80599
884.734	30.55946
884.914	-5.26836
885.095	-38.98228
885.275	-32.6614
885.456	-51.62336
885.636	34.77495
885.817	34.77495
885.997	-22.12611
886.178	-32.6614
886.358	-102.17852
886.538	-9.48295
886.719	-1.05368
886.899	7.37596
887.08	24.2364
887.26	20.02115
887.44	-17.91182
887.621	-74.79631
887.801	9.48343
887.981	13.69845
888.161	55.85379
888.342	41.09836
888.522	-57.94356
888.702	-9.48295
888.882	-9.48295
889.062	49.5299
889.242	-28.44736
889.423	-24.23321
889.603	-26.3403
889.783	-43.19607
889.963	-22.12611
890.143	-47.40976
890.323	-47.40976
890.503	13.69845
890.683	-24.23321
890.863	-22.12611
891.043	28.45175
891.223	64.28597
891.403	32.66719
891.583	17.91356
891.763	-76.90279
891.943	-47.40976
892.122	64.28597
892.302	11.59093
892.482	34.77495
892.662	-26.3403
892.842	3.16109
893.022	-3.16104
893.201	-41.08919
893.381	20.02115
893.561	68.5022
893.741	1.05369
893.92	127.53879
894.1	-15.80464
894.28	28.45175
894.459	-5.26836
894.639	15.80599
894.819	-15.80464
894.998	-76.90279
895.178	51.63784
895.357	17.91356
895.537	-15.80464
895.716	17.91356
895.896	-7.37567
896.075	13.69845
896.255	-72.68981
896.434	49.5299
896.614	26.34407
896.793	-22.12611
896.973	-49.51657
897.152	9.48343
897.331	-41.08919
897.511	-89.54113
897.69	-17.91182
897.87	-17.91182
898.049	28.45175
898.228	-20.01897
898.407	-22.12611
898.587	64.28597
898.766	22.12877
898.945	-3.16104
899.124	32.66719
899.304	-15.80464
899.483	-1.05368
899.662	49.5299
899.841	13.69845
900.02	62.17789
900.199	-26.3403
900.378	9.48343
900.557	-11.5902
900.737	15.80599
900.916	9.48343
901.095	11.59093
901.274	55.85379
901.453	-24.23321
901.632	-43.19607
901.811	7.37596
901.989	28.45175
902.168	-51.62336
902.347	-13.69743
902.526	24.2364
902.705	11.59093
902.884	30.55946
903.063	-26.3403
903.242	45.31408
903.42	17.91356
903.599	-13.69743
903.778	43.20621
903.957	7.37596
904.135	-60.05024
904.314	1.05369
904.493	-38.98228
904.672	-60.05024
904.85	11.59093
905.029	15.80599
905.207	30.55946
905.386	91.69308
905.565	-9.48295
905.743	-17.91182
905.922	-60.05024
906.1	53.7458
906.279	66.39408
906.457	28.45175
906.636	7.37596
906.814	-15.80464
906.993	-45.30293
907.171	-1.05368
907.35	-17.91182
907.528	7.37596
907.707	45.31408
907.885	72.71852
908.063	-3.16104
908.242	83.25972
908.42	-20.01897
908.598	7.37596
908.777	1.05369
908.955	-1.05368
909.133	34.77495
909.311	11.59093
909.49	60.06984
909.668	-51.62336
909.846	-30.55439
910.024	-13.69743
910.202	-47.40976
910.38	-83.22208
910.559	-7.37567
910.737	45.31408
910.915	20.02115
911.093	-32.6614
911.271	-34.76838
911.449	-5.26836
911.627	-5.26836
911.805	-26.3403
911.983	-30.55439
912.161	62.17789
912.339	-5.26836
912.517	7.37596
912.695	-5.26836
912.872	-45.30293
913.05	66.39408
913.228	-9.48295
913.406	-53.73012
913.584	9.48343
913.762	3.16109
913.939	-1.05368
914.117	11.59093
914.295	7.37596
914.473	41.09836
914.65	-15.80464
914.828	32.66719
915.006	7.37596
915.184	9.48343
915.361	-22.12611
915.539	3.16109
915.716	-104.28467
915.894	9.48343
916.072	66.39408
916.249	28.45175
916.427	-26.3403
916.604	-15.80464
916.782	17.91356
916.959	-30.55439
917.137	30.55946
917.314	68.5022
917.492	51.63784
917.669	62.17789
917.847	20.02115
918.024	20.02115
918.201	17.91356
918.379	28.45175
918.556	41.09836
918.733	-15.80464
918.911	-68.47672
919.088	22.12877
919.265	9.48343
919.442	93.80147
919.62	-26.3403
919.797	-57.94356
919.974	26.34407
920.151	38.99053
920.328	43.20621
920.506	24.2364
920.683	11.59093
920.86	15.80599
921.037	-60.05024
921.214	-24.23321
921.391	-41.08919
921.568	-17.91182
921.745	-34.76838
921.922	-9.48295
922.099	51.63784
922.276	-34.76838
922.453	-17.91182
922.63	36.88273
922.807	-5.26836
922.984	-17.91182
923.161	-22.12611
923.338	-30.55439
923.514	7.37596
923.691	-43.19607
923.868	-1.05368
924.045	28.45175
924.222	9.48343
924.399	28.45175
924.575	100.12679
924.752	-17.91182
924.929	26.34407
925.105	3.16109
925.282	7.37596
925.459	-15.80464
925.635	-26.3403
925.812	28.45175
925.989	53.7458
926.165	-57.94356
926.342	34.77495
926.518	-34.76838
926.695	7.37596
926.871	-22.12611
927.048	-30.55439
927.224	-41.08919
927.401	-24.23321
927.577	11.59093
927.754	41.09836
927.93	74.82672
928.107	-1.05368
928.283	24.2364
928.459	-51.62336
928.636	-57.94356
928.812	-1.05368
928.988	-32.6614
929.165	-24.23321
929.341	-38.98228
929.517	-13.69743
929.693	7.37596
929.87	-36.87534
930.046	-22.12611
930.222	49.5299
930.398	-38.98228
930.574	41.09836
930.751	3.16109
930.927	-85.32845
931.103	-24.23321
931.279	26.34407
931.455	34.77495
931.631	34.77495
931.807	3.16109
931.983	-3.16104
932.159	-22.12611
932.335	-43.19607
932.511	53.7458
932.687	-91.64742
932.863	60.06984
933.039	34.77495
933.215	57.9618
933.391	57.9618
933.566	5.26851
933.742	45.31408
933.918	-11.5902
934.094	-9.48295
934.27	-22.12611
934.445	47.42198
934.621	-3.16104
934.797	41.09836
934.973	7.37596
935.148	53.7458
935.324	20.02115
935.5	106.45231
935.675	-47.40976
935.851	-9.48295
936.027	-3.16104
936.202	24.2364
936.378	-26.3403
936.553	9.48343
936.729	-3.16104
936.904	-24.23321
937.08	1.05369
937.255	-68.47672
937.431	11.59093
937.606	-17.91182
937.782	20.02115
937.957	15.80599
938.133	-41.08919
938.308	68.5022
938.483	-34.76838
938.659	30.55946
938.834	51.63784
939.009	32.66719
939.185	57.9618
939.36	49.5299
939.535	-11.5902
939.71	24.2364
939.886	-1.05368
940.061	-1.05368
940.236	-26.3403
940.411	68.5022
940.586	-43.19607
940.761	-24.23321
940.937	24.2364
941.112	-38.98228
941.287	-38.98228
941.462	49.5299
941.637	-26.3403
941.812	-41.08919
941.987	41.09836
942.162	9.48343
942.337	-26.3403
942.512	-24.23321
942.687	-57.94356
942.862	-36.87534
943.037	20.02115
943.212	100.12679
943.386	-64.26353
943.561	36.88273
943.736	-30.55439
943.911	-1.05368
944.086	-17.91182
944.26	-34.76838
944.435	-3.16104
944.61	-26.3403
944.785	-5.26836
944.959	60.06984
945.134	20.02115
945.309	-49.51657
945.483	53.7458
945.658	41.09836
945.833	32.66719
946.007	34.77495
946.182	-51.62336
946.357	60.06984
946.531	-9.48295
946.706	1.05369
946.88	-15.80464
947.055	-22.12611
947.229	-38.98228
947.404	13.69845
947.578	-7.37567
947.752	-32.6614
947.927	-66.37014
948.101	30.55946
948.276	30.55946
948.45	89.5847
948.624	-5.26836
948.799	-43.19607
948.973	-22.12611
949.147	43.20621
949.321	45.31408
949.496	15.80599
949.67	-15.80464
949.844	-1.05368
950.018	93.80147
950.193	5.26851
950.367	-38.98228
950.541	38.99053
950.715	-30.55439
950.889	3.16109
951.063	-38.98228
951.237	9.48343
951.411	-15.80464
951.585	7.37596
951.759	-17.91182
951.933	-43.19607
952.107	-5.26836
952.281	-22.12611
952.455	-9.48295
952.629	53.7458
952.803	-41.08919
952.977	24.2364
953.151	-20.01897
953.325	17.91356
953.499	38.99053
953.672	45.31408
953.846	74.82672
954.02	-30.55439
954.194	-41.08919
954.368	36.88273
954.541	-24.23321
954.715	26.34407
954.889	11.59093
955.062	45.31408
955.236	-30.55439
955.41	11.59093
955.583	-13.69743
955.757	-5.26836
955.93	20.02115
956.104	-51.62336
956.278	3.16109
956.451	-9.48295
956.625	-13.69743
956.798	62.17789
956.972	7.37596
957.145	53.7458
957.319	55.85379
957.492	-26.3403
957.665	15.80599
957.839	-24.23321
958.012	-74.79631
958.185	70.61035
958.359	17.91356
958.532	1.05369
958.705	60.06984
958.879	7.37596
959.052	-1.05368
959.225	-36.87534
959.398	-7.37567
959.572	-3.16104
959.745	-9.48295
959.918	-26.3403
960.091	47.42198
960.264	24.2364
960.438	36.88273
960.611	-13.69743
960.784	79.04317
960.957	-24.23321
961.13	70.61035
961.303	15.80599
961.476	-36.87534
961.649	24.2364
961.822	36.88273
961.995	81.15143
962.168	-1.05368
962.341	9.48343
962.514	41.09836
962.686	20.02115
962.859	76.93493
963.032	11.59093
963.205	22.12877
963.378	22.12877
963.551	-7.37567
963.723	-41.08919
963.896	66.39408
964.069	15.80599
964.242	-41.08919
964.414	26.34407
964.587	-49.51657
964.76	32.66719
964.932	7.37596
965.105	20.02115
965.278	11.59093
965.45	79.04317
965.623	9.48343
965.795	9.48343
965.968	-32.6614
966.14	53.7458
966.313	15.80599
966.485	-76.90279
966.658	-3.16104
966.83	-22.12611
967.003	-28.44736
967.175	-1.05368
967.348	41.09836
967.52	17.91356
967.692	-7.37567
967.865	-13.69743
968.037	70.61035
968.209	66.39408
968.382	57.9618
968.554	85.36802
968.726	74.82672
968.898	57.9618
969.071	-15.80464
969.243	3.16109
969.415	-17.91182
969.587	-11.5902
969.759	3.16109
969.932	3.16109
970.104	24.2364
970.276	49.5299
970.448	-9.48295
970.62	53.7458
970.792	-15.80464
970.964	28.45175
971.136	41.09836
971.308	87.47635
971.48	-17.91182
971.652	-30.55439
971.824	-55.83685
971.996	-34.76838
972.168	-17.91182
972.339	26.34407
972.511	26.34407
972.683	57.9618
972.855	22.12877
973.027	1.05369
973.199	-5.26836
973.37	32.66719
973.542	-11.5902
973.714	1.05369
973.886	66.39408
974.057	5.26851
974.229	-13.69743
974.401	26.34407
974.572	-66.37014
974.744	1.05369
974.915	-5.26836
975.087	24.2364
975.259	7.37596
975.43	-26.3403
975.602	-7.37567
975.773	45.31408
975.945	-13.69743
976.116	45.31408
976.288	28.45175
976.459	60.06984
976.63	-26.3403
976.802	-32.6614
976.973	28.45175
977.145	-72.68981
977.316	47.42198
977.487	-11.5902
977.659	53.7458
977.83	-17.91182
978.001	-74.79631
978.172	9.48343
978.344	-28.44736
978.515	45.31408
978.686	-47.40976
978.857	-5.26836
979.028	-66.37014
979.2	49.5299
979.371	-36.87534
979.542	106.45231
979.713	9.48343
979.884	7.37596
980.055	-47.40976
980.226	57.9618
980.397	28.45175
980.568	116.99528
980.739	32.66719
980.91	-51.62336
981.081	-5.26836
981.252	-3.16104
981.423	-51.62336
981.594	-47.40976
981.765	1.05369
981.936	32.66719
982.106	62.17789
982.277	26.34407
982.448	79.04317
982.619	15.80599
982.79	-38.98228
982.96	-17.91182
983.131	38.99053
983.302	-13.69743
983.472	-38.98228
983.643	-68.47672
983.814	-26.3403
983.984	62.17789
984.155	51.63784
984.326	-5.26836
984.496	-60.05024
984.667	-17.91182
984.837	55.85379
985.008	17.91356
985.178	57.9618
985.349	34.77495
985.519	9.48343
985.69	11.59093
985.86	51.63784
986.031	7.37596
986.201	32.66719
986.371	24.2364
986.542	-3.16104
986.712	17.91356
986.882	24.2364
987.053	68.5022
987.223	-5.26836
987.393	9.48343
987.563	28.45175
987.734	-7.37567
987.904	17.91356
988.074	49.5299
988.244	-11.5902
988.414	62.17789
988.585	-22.12611
988.755	-68.47672
988.925	28.45175
989.095	-9.48295
989.265	-41.08919
989.435	32.66719
989.605	-5.26836
989.775	76.93493
989.945	28.45175
990.115	34.77495
990.285	28.45175
990.455	-30.55439
990.625	34.77495
990.795	9.48343
990.965	-32.6614
991.134	-64.26353
991.304	53.7458
991.474	3.16109
991.644	3.16109
991.814	-5.26836
991.984	20.02115
992.153	-38.98228
992.323	-17.91182
992.493	49.5299
992.662	-24.23321
992.832	-34.76838
993.002	34.77495
993.171	32.66719
993.341	-43.19607
993.511	5.26851
993.68	-3.16104
993.85	-34.76838
994.019	5.26851
994.189	-1.05368
994.358	43.20621
994.528	55.85379
994.697	-68.47672
994.867	-62.1569
995.036	-22.12611
995.206	79.04317
995.375	-34.76838
995.544	9.48343
995.714	60.06984
995.883	-72.68981
996.052	9.48343
996.222	15.80599
996.391	9.48343
996.56	62.17789
996.73	-13.69743
996.899	-1.05368
997.068	51.63784
997.237	-22.12611
997.406	5.26851
997.576	-9.48295
997.745	-9.48295
997.914	24.2364
998.083	7.37596
998.252	1.05369
998.421	62.17789
998.59	66.39408
998.759	-41.08919
998.928	-17.91182
999.097	34.77495
999.266	3.16109
999.435	11.59093
999.604	-9.48295
999.773	-15.80464
999.942	1.05369
1000.111	-38.98228
1000.28	57.9618
1000.448	20.02115
1000.617	-72.68981
1000.786	-26.3403
1000.955	32.66719
1001.124	-3.16104
1001.292	36.88273
1001.461	53.7458
1001.63	30.55946
1001.798	5.26851
1001.967	-26.3403
1002.136	-17.91182
1002.304	-49.51657
1002.473	87.47635
1002.642	20.02115
1002.81	41.09836
1002.979	1.05369
1003.147	15.80599
1003.316	-9.48295
1003.484	-24.23321
1003.653	-26.3403
1003.821	-106.39078
1003.99	24.2364
1004.158	-41.08919
1004.327	7.37596
1004.495	24.2364
1004.663	-5.26836
1004.832	3.16109
1005	-49.51657
1005.168	57.9618
1005.337	-43.19607
1005.505	-49.51657
1005.673	-9.48295
1005.842	-45.30293
1006.01	-13.69743
1006.178	20.02115
1006.346	-38.98228
1006.514	-9.48295
1006.683	-22.12611
1006.851	-15.80464
1007.019	22.12877
1007.187	-22.12611
1007.355	-1.05368
1007.523	9.48343
1007.691	49.5299
1007.859	-28.44736
1008.027	-26.3403
1008.195	49.5299
1008.363	-51.62336
1008.531	26.34407
1008.699	28.45175
1008.867	34.77495
1009.035	11.59093
1009.203	-22.12611
1009.37	93.80147
1009.538	24.2364
1009.706	13.69845
1009.874	-24.23321
1010.042	7.37596
1010.209	-1.05368
1010.377	34.77495
1010.545	-79.00925
1010.713	-49.51657
1010.88	15.80599
1011.048	53.7458
1011.216	7.37596
1011.383	-91.64742
1011.551	-17.91182
1011.718	7.37596
1011.886	-17.91182
1012.054	43.20621
1012.221	51.63784
1012.389	53.7458
1012.556	-32.6614
1012.724	87.47635
1012.891	11.59093
1013.058	-45.30293
1013.226	51.63784
1013.393	20.02115
1013.561	-22.12611
1013.728	20.02115
1013.895	15.80599
1014.063	13.69845
1014.23	119.10394
1014.397	11.59093
1014.565	38.99053
1014.732	-85.32845
1014.899	-1.05368
1015.066	7.37596
1015.233	11.59093
1015.401	34.77495
1015.568	24.2364
1015.735	1.05369
1015.902	22.12877
1016.069	26.34407
1016.236	28.45175
1016.403	-15.80464
1016.57	-26.3403
1016.737	41.09836
1016.904	-43.19607
1017.071	41.09836
1017.238	-32.6614
1017.405	-26.3403
1017.572	-38.98228
1017.739	-26.3403
1017.906	-68.47672
1018.073	-62.1569
1018.24	24.2364
1018.407	41.09836
1018.573	-26.3403
1018.74	-24.23321
1018.907	-9.48295
1019.074	-26.3403
1019.241	-43.19607
1019.407	68.5022
1019.574	-74.79631
1019.741	-9.48295
1019.907	36.88273
1020.074	26.34407
1020.241	-32.6614
1020.407	-3.16104
1020.574	32.66719
1020.74	-24.23321
1020.907	32.66719
1021.073	-34.76838
1021.24	22.12877
1021.406	49.5299
1021.573	24.2364
1021.739	-15.80464
1021.906	-17.91182
1022.072	9.48343
1022.239	-5.26836
1022.405	64.28597
1022.571	9.48343
1022.738	-15.80464
1022.904	-24.23321
1023.07	-5.26836
1023.237	49.5299
1023.403	41.09836
1023.569	34.77495
1023.735	-5.26836
1023.902	-26.3403
1024.068	-1.05368
1024.234	13.69845
1024.4	-51.62336
1024.566	32.66719
1024.732	-26.3403
1024.898	5.26851
1025.065	79.04317
1025.231	28.45175
1025.397	-17.91182
1025.563	-20.01897
1025.729	9.48343
1025.895	24.2364
1026.061	5.26851
1026.227	-38.98228
1026.392	26.34407
1026.558	-5.26836
1026.724	-26.3403
1026.89	-15.80464
1027.056	24.2364
1027.222	17.91356
1027.388	30.55946
1027.553	-9.48295
1027.719	-28.44736
1027.885	-9.48295
1028.051	41.09836
1028.216	7.37596
1028.382	15.80599
1028.548	-47.40976
1028.713	-7.37567
1028.879	-28.44736
1029.045	24.2364
1029.21	-85.32845
1029.376	-13.69743
1029.541	-60.05024
1029.707	-49.51657
1029.873	-53.73012
1030.038	-62.1569
1030.204	60.06984
1030.369	28.45175
1030.534	49.5299
1030.7	108.56086
1030.865	9.48343
1031.031	28.45175
1031.196	53.7458
1031.361	-34.76838
1031.527	-36.87534
1031.692	7.37596
1031.857	76.93493
1032.023	-32.6614
1032.188	3.16109
1032.353	41.09836
1032.518	-34.76838
1032.684	51.63784
1032.849	74.82672
1033.014	53.7458
1033.179	24.2364
1033.344	15.80599
1033.509	-72.68981
1033.674	-5.26836
1033.839	43.20621
1034.004	7.37596
1034.17	-34.76838
1034.335	-47.40976
1034.5	66.39408
1034.664	15.80599
1034.829	-5.26836
1034.994	43.20621
1035.159	-20.01897
1035.324	5.26851
1035.489	1.05369
1035.654	43.20621
1035.819	7.37596
1035.984	3.16109
1036.148	7.37596
1036.313	-15.80464
1036.478	-32.6614
1036.643	1.05369
1036.807	70.61035
1036.972	79.04317
1037.137	-30.55439
1037.301	-57.94356
1037.466	-22.12611
1037.631	32.66719
1037.795	-55.83685
1037.96	83.25972
1038.124	-17.91182
1038.289	22.12877
1038.454	20.02115
1038.618	-7.37567
1038.783	-28.44736
1038.947	49.5299
1039.111	-47.40976
1039.276	64.28597
1039.44	-83.22208
1039.605	13.69845
1039.769	26.34407
1039.933	26.34407
1040.098	-5.26836
1040.262	-62.1569
1040.426	15.80599
1040.591	53.7458
1040.755	-7.37567
1040.919	-9.48295
1041.083	91.69308
1041.248	7.37596
1041.412	-28.44736
1041.576	-17.91182
1041.74	-17.91182
1041.904	26.34407
1042.068	-20.01897
1042.232	-15.80464
1042.397	-11.5902
1042.561	11.59093
1042.725	20.02115
1042.889	-34.76838
1043.053	-9.48295
1043.217	20.02115
1043.381	-9.48295
1043.544	3.16109
1043.708	28.45175
1043.872	-1.05368
1044.036	-91.64742
1044.2	-1.05368
1044.364	-17.91182
1044.528	36.88273
1044.691	22.12877
1044.855	17.91356
1045.019	-9.48295
1045.183	-43.19607
1045.346	13.69845
1045.51	41.09836
1045.674	91.69308
1045.837	53.7458
1046.001	-13.69743
1046.165	-22.12611
1046.328	-43.19607
1046.492	-24.23321
1046.655	-30.55439
1046.819	-11.5902
1046.983	3.16109
1047.146	-30.55439
1047.31	3.16109
1047.473	-7.37567
1047.636	28.45175
1047.8	15.80599
1047.963	34.77495
1048.127	36.88273
1048.29	51.63784
