Data from Scatter_Coeff_Baseline_USB4F045381__35__0035.txt Node

Date: Thu Feb 13 19:23:06 EST 2025
User: mmckonesweet
Spectrometer: USB4F04538
Trigger mode: 4
Integration Time (sec): 2.400000E-3
Scans to average: 1
Electric dark correction enabled: true
Nonlinearity correction enabled: true
Boxcar width: 0
XAxis mode: Wavelengths
Number of Pixels in Spectrum: 3648
>>>>>Begin Spectral Data<<<<<
345.52	-7.90249
345.736	-7.90249
345.952	-7.90249
346.168	-52.15005
346.384	-50.04327
346.6	15.2791
346.816	23.70949
347.032	-16.33143
347.248	-5.79519
347.464	15.2791
347.68	-60.57691
347.896	-14.22423
348.112	11.06405
348.328	-1.58052
348.544	57.4348
348.76	-56.36353
348.975	32.14026
349.191	-18.43861
349.407	21.60186
349.623	6.8491
349.839	23.70949
350.055	59.54283
350.27	74.29967
350.486	11.06405
350.702	67.97517
350.918	-33.18815
351.133	36.35578
351.349	42.67924
351.565	44.78711
351.781	19.49425
351.996	-31.08114
352.212	-45.82964
352.428	-73.21644
352.644	-14.22423
352.859	23.70949
353.075	23.70949
353.291	44.78711
353.506	40.5714
353.722	-24.75999
353.938	-47.93647
354.153	51.11085
354.369	6.8491
354.584	80.62436
354.8	-50.04327
355.016	-3.68787
355.231	32.14026
355.447	51.11085
355.662	-35.29512
355.878	-12.11701
356.093	21.60186
356.309	-10.00976
356.524	-52.15005
356.74	57.4348
356.955	11.06405
357.171	-41.61591
357.386	6.8491
357.602	-28.97412
357.817	-18.43861
358.033	-24.75999
358.248	23.70949
358.464	27.92483
358.679	-10.00976
358.895	49.00291
359.11	8.95656
359.325	-10.00976
359.541	8.95656
359.756	63.75895
359.972	49.00291
360.187	38.46358
360.402	-52.15005
360.618	-1.58052
360.833	0.52684
361.048	-43.72279
361.264	19.49425
361.479	-24.75999
361.694	-1.58052
361.909	-37.40208
362.125	-43.72279
362.34	30.03253
362.555	-35.29512
362.77	-77.42941
362.986	49.00291
363.201	-14.22423
363.416	-52.15005
363.631	25.81715
363.847	65.86705
364.062	-18.43861
364.277	42.67924
364.492	-18.43861
364.707	-22.65289
364.922	-35.29512
365.138	57.4348
365.353	2.63424
365.568	11.06405
365.783	40.5714
365.998	55.32679
366.213	-20.54576
366.428	-1.58052
366.643	63.75895
366.858	4.74166
367.073	2.63424
367.288	51.11085
367.503	36.35578
367.718	6.8491
367.933	-10.00976
368.148	-47.93647
368.363	-22.65289
368.578	-7.90249
368.793	46.895
369.008	-73.21644
369.223	-7.90249
369.438	13.17157
369.653	6.8491
369.868	-33.18815
370.083	-92.17399
370.298	0.52684
370.513	-43.72279
370.728	103.81665
370.943	-45.82964
371.157	-22.65289
371.372	-20.54576
371.587	38.46358
371.802	49.00291
372.017	-26.86706
372.232	25.81715
372.446	19.49425
372.661	-16.33143
372.876	8.95656
373.091	-12.11701
373.306	-56.36353
373.52	17.38667
373.735	2.63424
373.95	6.8491
374.165	-31.08114
374.379	-10.00976
374.594	-24.75999
374.809	32.14026
375.023	57.4348
375.238	2.63424
375.453	25.81715
375.667	49.00291
375.882	-43.72279
376.097	-39.50901
376.311	53.21881
376.526	25.81715
376.741	15.2791
376.955	-35.29512
377.17	2.63424
377.384	0.52684
377.599	30.03253
377.813	-33.18815
378.028	78.51611
378.242	36.35578
378.457	-12.11701
378.672	36.35578
378.886	8.95656
379.101	-60.57691
379.315	44.78711
379.53	-18.43861
379.744	42.67924
379.958	-26.86706
380.173	-26.86706
380.387	-47.93647
380.602	-43.72279
380.816	65.86705
381.031	-60.57691
381.245	-39.50901
381.459	-31.08114
381.674	74.29967
381.888	-77.42941
382.103	11.06405
382.317	70.08331
382.531	25.81715
382.746	-18.43861
382.96	-16.33143
383.174	46.895
383.388	-26.86706
383.603	49.00291
383.817	-1.58052
384.031	2.63424
384.246	40.5714
384.46	6.8491
384.674	6.8491
384.888	27.92483
385.103	6.8491
385.317	-31.08114
385.531	-16.33143
385.745	42.67924
385.959	8.95656
386.174	-10.00976
386.388	-66.89679
386.602	19.49425
386.816	-1.58052
387.03	4.74166
387.244	27.92483
387.458	-64.79019
387.672	-18.43861
387.887	4.74166
388.101	-33.18815
388.315	27.92483
388.529	8.95656
388.743	55.32679
388.957	-43.72279
389.171	4.74166
389.385	67.97517
389.599	57.4348
389.813	-12.11701
390.027	-64.79019
390.241	32.14026
390.455	11.06405
390.669	25.81715
390.883	-22.65289
391.097	-14.22423
391.311	-10.00976
391.525	34.24801
391.738	11.06405
391.952	-18.43861
392.166	6.8491
392.38	40.5714
392.594	-26.86706
392.808	19.49425
393.022	40.5714
393.236	11.06405
393.449	-5.79519
393.663	49.00291
393.877	11.06405
394.091	-35.29512
394.305	-10.00976
394.518	53.21881
394.732	-35.29512
394.946	-5.79519
395.16	40.5714
395.373	38.46358
395.587	-26.86706
395.801	17.38667
396.015	-39.50901
396.228	-60.57691
396.442	-14.22423
396.656	-20.54576
396.869	4.74166
397.083	36.35578
397.297	-7.90249
397.51	-16.33143
397.724	34.24801
397.938	-12.11701
398.151	8.95656
398.365	-33.18815
398.578	0.52684
398.792	-26.86706
399.005	-18.43861
399.219	-12.11701
399.433	-26.86706
399.646	6.8491
399.86	-41.61591
400.073	32.14026
400.287	32.14026
400.5	17.38667
400.714	-10.00976
400.927	-26.86706
401.141	2.63424
401.354	-41.61591
401.567	49.00291
401.781	-5.79519
401.994	70.08331
402.208	36.35578
402.421	-83.74867
402.635	17.38667
402.848	-1.58052
403.061	0.52684
403.275	2.63424
403.488	-1.58052
403.701	2.63424
403.915	61.65088
404.128	34.24801
404.341	36.35578
404.555	27.92483
404.768	19.49425
404.981	103.81665
405.195	27.92483
405.408	-1.58052
405.621	67.97517
405.834	-10.00976
406.048	76.40788
406.261	-1.58052
406.474	2.63424
406.687	36.35578
406.9	65.86705
407.114	70.08331
407.327	0.52684
407.54	97.49122
407.753	4.74166
407.966	-18.43861
408.179	36.35578
408.392	40.5714
408.605	-7.90249
408.819	11.06405
409.032	38.46358
409.245	-73.21644
409.458	34.24801
409.671	46.895
409.884	15.2791
410.097	-39.50901
410.31	49.00291
410.523	51.11085
410.736	-33.18815
410.949	25.81715
411.162	-1.58052
411.375	25.81715
411.588	11.06405
411.801	38.46358
412.014	65.86705
412.227	-69.00336
412.44	-5.79519
412.653	-62.68356
412.865	-24.75999
413.078	19.49425
413.291	8.95656
413.504	42.67924
413.717	19.49425
413.93	4.74166
414.143	-35.29512
414.356	-83.74867
414.568	13.17157
414.781	6.8491
414.994	8.95656
415.207	-14.22423
415.42	17.38667
415.632	30.03253
415.845	2.63424
416.058	19.49425
416.271	82.73264
416.483	-66.89679
416.696	23.70949
416.909	36.35578
417.121	40.5714
417.334	23.70949
417.547	-14.22423
417.759	61.65088
417.972	15.2791
418.185	-3.68787
418.397	2.63424
418.61	67.97517
418.823	-50.04327
419.035	44.78711
419.248	91.16598
419.46	-24.75999
419.673	11.06405
419.885	34.24801
420.098	40.5714
420.311	-28.97412
420.523	-1.58052
420.736	-14.22423
420.948	8.95656
421.161	36.35578
421.373	6.8491
421.586	-26.86706
421.798	55.32679
422.01	44.78711
422.223	34.24801
422.435	46.895
422.648	17.38667
422.86	40.5714
423.073	44.78711
423.285	11.06405
423.497	6.8491
423.71	23.70949
423.922	72.19148
424.134	0.52684
424.347	74.29967
424.559	59.54283
424.771	23.70949
424.984	-22.65289
425.196	-18.43861
425.408	-22.65289
425.621	65.86705
425.833	32.14026
426.045	-1.58052
426.257	6.8491
426.47	23.70949
426.682	6.8491
426.894	51.11085
427.106	19.49425
427.318	40.5714
427.531	-66.89679
427.743	-5.79519
427.955	17.38667
428.167	27.92483
428.379	2.63424
428.591	8.95656
428.804	-33.18815
429.016	57.4348
429.228	-37.40208
429.44	44.78711
429.652	-14.22423
429.864	-5.79519
430.076	-60.57691
430.288	38.46358
430.5	17.38667
430.712	-50.04327
430.924	-47.93647
431.136	2.63424
431.348	-33.18815
431.56	49.00291
431.772	-39.50901
431.984	17.38667
432.196	8.95656
432.408	-56.36353
432.62	32.14026
432.832	-5.79519
433.044	-3.68787
433.256	70.08331
433.468	11.06405
433.679	38.46358
433.891	42.67924
434.103	-20.54576
434.315	-5.79519
434.527	78.51611
434.739	-39.50901
434.95	-14.22423
435.162	-5.79519
435.374	-26.86706
435.586	-41.61591
435.798	-52.15005
436.009	6.8491
436.221	-5.79519
436.433	2.63424
436.645	-58.47023
436.856	36.35578
437.068	-26.86706
437.28	-47.93647
437.491	-39.50901
437.703	-33.18815
437.915	-10.00976
438.126	34.24801
438.338	32.14026
438.55	0.52684
438.761	15.2791
438.973	-7.90249
439.184	-24.75999
439.396	70.08331
439.608	-3.68787
439.819	-24.75999
440.031	57.4348
440.242	17.38667
440.454	59.54283
440.665	23.70949
440.877	27.92483
441.088	27.92483
441.3	-5.79519
441.511	2.63424
441.723	11.06405
441.934	23.70949
442.146	57.4348
442.357	23.70949
442.569	19.49425
442.78	13.17157
442.991	-10.00976
443.203	-7.90249
443.414	44.78711
443.626	36.35578
443.837	-31.08114
444.048	-28.97412
444.26	-54.2568
444.471	6.8491
444.682	6.8491
444.894	27.92483
445.105	13.17157
445.316	-14.22423
445.528	-58.47023
445.739	34.24801
445.95	-14.22423
446.161	65.86705
446.373	34.24801
446.584	-14.22423
446.795	-5.79519
447.006	8.95656
447.217	15.2791
447.429	-60.57691
447.64	-7.90249
447.851	-12.11701
448.062	-56.36353
448.273	-41.61591
448.484	6.8491
448.695	40.5714
448.907	-12.11701
449.118	-52.15005
449.329	-1.58052
449.54	-41.61591
449.751	-60.57691
449.962	-12.11701
450.173	0.52684
450.384	105.92518
450.595	23.70949
450.806	-43.72279
451.017	-26.86706
451.228	6.8491
451.439	38.46358
451.65	-41.61591
451.861	-16.33143
452.072	25.81715
452.283	93.27437
452.494	49.00291
452.705	93.27437
452.915	-73.21644
453.126	0.52684
453.337	55.32679
453.548	21.60186
453.759	40.5714
453.97	-22.65289
454.181	17.38667
454.391	38.46358
454.602	15.2791
454.813	32.14026
455.024	74.29967
455.235	19.49425
455.445	-16.33143
455.656	-22.65289
455.867	-47.93647
456.078	116.46812
456.288	-45.82964
456.499	27.92483
456.71	-10.00976
456.921	51.11085
457.131	-35.29512
457.342	53.21881
457.553	40.5714
457.763	51.11085
457.974	15.2791
458.184	25.81715
458.395	70.08331
458.606	57.4348
458.816	-37.40208
459.027	23.70949
459.237	-1.58052
459.448	-18.43861
459.659	-1.58052
459.869	-1.58052
460.08	57.4348
460.29	36.35578
460.501	36.35578
460.711	0.52684
460.922	-43.72279
461.132	4.74166
461.343	-39.50901
461.553	44.78711
461.764	11.06405
461.974	15.2791
462.184	25.81715
462.395	4.74166
462.605	61.65088
462.816	53.21881
463.026	2.63424
463.236	80.62436
463.447	-43.72279
463.657	-1.58052
463.867	-56.36353
464.078	46.895
464.288	-69.00336
464.498	4.74166
464.709	67.97517
464.919	-24.75999
465.129	-47.93647
465.339	6.8491
465.55	-31.08114
465.76	-12.11701
465.97	8.95656
466.18	46.895
466.391	21.60186
466.601	-52.15005
466.811	-31.08114
467.021	44.78711
467.231	-26.86706
467.441	-102.70506
467.651	82.73264
467.862	-83.74867
468.072	17.38667
468.282	32.14026
468.492	143.8823
468.702	-1.58052
468.912	6.8491
469.122	-56.36353
469.332	49.00291
469.542	-1.58052
469.752	-31.08114
469.962	-10.00976
470.172	42.67924
470.382	23.70949
470.592	-33.18815
470.802	-35.29512
471.012	34.24801
471.222	-26.86706
471.432	57.4348
471.642	30.03253
471.852	-1.58052
472.062	25.81715
472.272	-5.79519
472.482	21.60186
472.691	-16.33143
472.901	65.86705
473.111	23.70949
473.321	15.2791
473.531	6.8491
473.741	23.70949
473.95	23.70949
474.16	-35.29512
474.37	25.81715
474.58	57.4348
474.79	-69.00336
474.999	40.5714
475.209	21.60186
475.419	8.95656
475.628	-73.21644
475.838	23.70949
476.048	32.14026
476.258	-5.79519
476.467	65.86705
476.677	-52.15005
476.886	8.95656
477.096	8.95656
477.306	34.24801
477.515	11.06405
477.725	49.00291
477.935	59.54283
478.144	-1.58052
478.354	38.46358
478.563	27.92483
478.773	74.29967
478.982	-1.58052
479.192	8.95656
479.401	-28.97412
479.611	53.21881
479.82	15.2791
480.03	-52.15005
480.239	42.67924
480.449	-10.00976
480.658	-1.58052
480.868	-24.75999
481.077	-1.58052
481.287	27.92483
481.496	-1.58052
481.705	32.14026
481.915	-35.29512
482.124	15.2791
482.333	6.8491
482.543	51.11085
482.752	11.06405
482.961	49.00291
483.171	32.14026
483.38	112.25088
483.589	-18.43861
483.799	80.62436
484.008	-43.72279
484.217	44.78711
484.426	15.2791
484.636	-54.2568
484.845	30.03253
485.054	15.2791
485.263	8.95656
485.472	40.5714
485.682	53.21881
485.891	46.895
486.1	15.2791
486.309	120.68545
486.518	0.52684
486.727	97.49122
486.936	-12.11701
487.146	108.03372
487.355	42.67924
487.564	21.60186
487.773	23.70949
487.982	15.2791
488.191	95.38278
488.4	46.895
488.609	-5.79519
488.818	101.70815
489.027	11.06405
489.236	116.46812
489.445	21.60186
489.654	2.63424
489.863	76.40788
490.072	141.77339
490.281	15.2791
490.49	-5.79519
490.698	27.92483
490.907	34.24801
491.116	38.46358
491.325	-77.42941
491.534	40.5714
491.743	97.49122
491.952	57.4348
492.16	80.62436
492.369	-7.90249
492.578	-14.22423
492.787	53.21881
492.996	67.97517
493.204	2.63424
493.413	99.59967
493.622	82.73264
493.831	61.65088
494.039	82.73264
494.248	70.08331
494.457	137.55563
494.665	152.31817
494.874	6.8491
495.083	-14.22423
495.291	34.24801
495.5	2.63424
495.709	-5.79519
495.917	57.4348
496.126	99.59967
496.335	42.67924
496.543	51.11085
496.752	40.5714
496.96	65.86705
497.169	4.74166
497.377	74.29967
497.586	110.14229
497.794	116.46812
498.003	17.38667
498.211	27.92483
498.42	55.32679
498.628	53.21881
498.837	120.68545
499.045	36.35578
499.254	61.65088
499.462	34.24801
499.671	76.40788
499.879	55.32679
500.087	53.21881
500.296	40.5714
500.504	89.05761
500.713	70.08331
500.921	82.73264
501.129	23.70949
501.338	116.46812
501.546	6.8491
501.754	101.70815
501.962	38.46358
502.171	15.2791
502.379	15.2791
502.587	6.8491
502.795	40.5714
503.004	82.73264
503.212	99.59967
503.42	11.06405
503.628	55.32679
503.837	74.29967
504.045	99.59967
504.253	101.70815
504.461	114.35949
504.669	116.46812
504.877	65.86705
505.085	169.1909
505.294	34.24801
505.502	137.55563
505.71	93.27437
505.918	70.08331
506.126	103.81665
506.334	101.70815
506.542	124.90287
506.75	2.63424
506.958	67.97517
507.166	80.62436
507.374	101.70815
507.582	101.70815
507.79	108.03372
507.998	127.01161
508.206	84.84094
508.414	65.86705
508.622	61.65088
508.83	114.35949
509.037	82.73264
509.245	72.19148
509.453	110.14229
509.661	70.08331
509.869	112.25088
510.077	105.92518
510.285	86.94927
510.492	46.895
510.7	59.54283
510.908	59.54283
511.116	89.05761
511.324	65.86705
511.531	74.29967
511.739	49.00291
511.947	110.14229
512.155	99.59967
512.362	139.6645
512.57	99.59967
512.778	177.62776
512.985	86.94927
513.193	129.12037
513.401	148.10019
513.608	57.4348
513.816	82.73264
514.024	44.78711
514.231	70.08331
514.439	108.03372
514.646	55.32679
514.854	61.65088
515.061	133.33796
515.269	190.28367
515.477	84.84094
515.684	129.12037
515.892	150.20917
516.099	120.68545
516.307	103.81665
516.514	152.31817
516.722	78.51611
516.929	158.64528
517.136	158.64528
517.344	219.81696
517.551	150.20917
517.759	89.05761
517.966	169.1909
518.173	78.51611
518.381	228.25576
518.588	127.01161
518.796	110.14229
519.003	93.27437
519.21	141.77339
519.418	110.14229
519.625	84.84094
519.832	213.48807
520.039	202.94032
520.247	139.6645
520.454	158.64528
520.661	145.99124
520.868	99.59967
521.076	226.14603
521.283	112.25088
521.49	205.04983
521.697	175.51851
521.904	205.04983
522.112	133.33796
522.319	173.40929
522.526	91.16598
522.733	194.50247
522.94	221.92663
523.147	116.46812
523.354	150.20917
523.561	234.58507
523.768	112.25088
523.975	183.95562
524.183	116.46812
524.39	200.83082
524.597	186.06495
524.804	247.24421
525.011	181.84631
525.218	251.46407
525.425	249.35413
525.632	154.42718
525.838	183.95562
526.045	192.39306
526.252	124.90287
526.459	207.15936
526.666	228.25576
526.873	247.24421
527.08	255.68401
527.287	188.1743
527.494	215.59768
527.701	190.28367
527.907	234.58507
528.114	262.01407
528.321	293.6669
528.528	238.8047
528.735	154.42718
528.941	224.03632
529.148	262.01407
529.355	283.11549
529.562	177.62776
529.768	238.8047
529.975	318.99213
530.182	283.11549
530.388	211.37848
530.595	232.47528
530.802	205.04983
531.008	243.02442
531.215	245.1343
531.422	207.15936
531.628	264.12413
531.835	268.3443
532.042	238.8047
532.248	276.78487
532.455	243.02442
532.661	285.22573
532.868	293.6669
533.074	333.76638
533.281	310.5501
533.487	352.76311
533.694	327.43445
533.9	238.8047
534.107	344.31995
534.313	346.43071
534.52	215.59768
534.726	289.44628
534.933	276.78487
535.139	361.20655
535.345	306.32919
535.552	401.31658
535.758	346.43071
535.965	432.98659
536.171	373.87222
536.377	344.31995
536.584	405.53904
536.79	439.32102
536.996	418.2068
537.203	331.65572
537.409	413.98415
537.615	462.54846
537.821	373.87222
538.028	454.1019
538.234	403.4278
538.44	399.20538
538.646	428.76371
538.853	432.98659
539.059	378.09425
539.265	380.20529
539.471	329.54508
539.677	477.33052
539.883	407.65029
540.09	458.32515
540.296	373.87222
540.502	483.66592
540.708	443.54405
540.914	403.4278
541.12	456.21352
541.326	487.88959
541.532	365.42837
541.738	462.54846
541.944	473.107
542.15	502.6729
542.356	327.43445
542.562	576.59991
542.768	523.79316
542.974	538.57818
543.18	513.23285
543.386	515.34488
543.592	515.34488
543.798	536.46599
544.004	458.32515
544.21	601.95012
544.415	394.98302
544.621	597.72496
544.827	506.89684
545.033	595.61239
545.239	528.01738
545.445	563.92551
545.651	481.5541
545.856	534.35382
546.062	614.62592
546.268	663.22063
546.474	506.89684
546.679	597.72496
546.885	513.23285
547.091	540.69038
547.297	555.47618
547.502	620.96399
547.708	656.88183
547.914	597.72496
548.119	542.8026
548.325	627.30218
548.531	593.49984
548.736	673.78553
548.942	589.27478
549.147	635.75326
549.353	511.12083
549.559	703.36879
549.764	580.82481
549.97	688.57688
550.175	648.43026
550.381	713.93477
550.586	601.95012
550.792	853.42963
550.997	701.25563
551.203	768.88217
551.408	684.35073
551.614	796.35845
551.819	690.68998
552.025	648.43026
552.23	716.048
552.435	792.13122
552.641	739.29423
552.846	770.99567
553.052	792.13122
553.257	686.4638
553.462	728.7276
553.668	836.51897
553.873	834.40517
554.078	711.82155
554.283	741.40759
554.489	868.22692
554.694	758.31482
554.899	912.62122
555.105	838.63277
555.31	914.73532
555.515	720.27449
555.72	927.42009
555.925	849.20191
556.131	963.3617
556.336	768.88217
556.541	952.79042
556.746	918.96355
556.951	830.17761
557.156	868.22692
557.361	944.33353
557.567	844.97423
557.772	1014.10618
557.977	830.17761
558.182	961.24743
558.387	874.56875
558.592	976.04747
558.797	876.6827
559.002	973.93315
559.207	921.07767
559.412	1035.25078
559.617	986.61912
559.822	971.81885
560.027	921.07767
560.232	1066.96877
560.437	1011.99175
560.642	961.24743
560.847	914.73532
561.051	1075.42711
561.256	944.33353
561.461	1071.19793
561.666	1062.73964
561.871	1107.14661
562.076	1045.82331
562.281	1050.05236
562.485	1096.57332
562.69	1094.45868
562.895	1107.14661
563.1	1299.59756
563.305	1145.21142
563.509	1092.34404
563.714	1056.39597
563.919	1151.5557
564.123	1037.36528
564.328	1086.00015
564.533	1077.54171
564.737	1267.87311
564.942	995.07656
565.147	1100.80262
565.351	995.07656
565.556	1113.49065
565.761	1054.28143
565.965	1054.28143
566.17	1191.73692
566.374	1240.37905
566.579	1176.93315
566.784	1231.91943
566.988	1088.11478
567.193	1225.57474
567.397	1132.52299
567.602	1344.01253
567.806	1187.50725
568.011	1363.04772
568.215	1185.39243
568.42	1363.04772
568.624	1282.67779
568.828	1299.59756
569.033	1098.68797
569.237	1324.97745
569.442	1140.98193
569.646	1392.65821
569.85	1371.50784
570.055	1464.56989
570.259	1286.90772
570.463	1475.14515
570.668	1272.10301
570.872	1468.79999
571.076	1318.63245
571.281	1498.41068
571.485	1388.42813
571.689	1456.10968
571.893	1316.51745
572.098	1538.59641
572.302	1346.12754
572.506	1453.99463
572.71	1401.11838
572.914	1453.99463
573.119	1481.4903
573.323	1557.63163
573.527	1377.85294
573.731	1422.26885
573.935	1401.11838
574.139	1633.77123
574.343	1384.19805
574.547	1587.24175
574.751	1458.22473
574.955	1547.05652
575.159	1409.57856
575.364	1621.08147
575.568	1453.99463
575.772	1642.23103
575.976	1544.9415
576.18	1657.03557
576.383	1595.70173
576.587	1811.41673
576.791	1591.47174
576.995	1688.75917
577.199	1599.9317
577.403	1737.40069
577.607	1604.16167
577.811	1684.52939
578.015	1580.89675
578.219	1646.46091
578.422	1686.64428
578.626	1699.33356
578.83	1688.75917
579.034	1638.00113
579.238	1747.9747
579.442	1821.99003
579.645	1566.0917
579.849	1798.72862
580.053	1707.79301
580.257	1912.91549
580.46	1781.8109
580.664	1832.56322
580.868	1775.46669
581.071	1885.42739
581.275	1741.63031
581.479	1883.31288
581.682	1739.5155
581.886	1936.17392
582.09	1798.72862
582.293	1942.51701
582.497	1741.63031
582.7	1758.54862
582.904	1847.3655
583.107	1828.33396
583.311	1769.12244
583.515	1999.60236
583.718	1885.42739
583.922	1955.20303
584.125	1752.20428
584.329	1997.48817
584.532	1946.7457
584.735	2033.42853
584.939	1747.9747
585.142	1893.88536
585.346	1807.18737
585.549	2103.18938
585.753	2020.74392
585.956	1986.91712
586.159	1946.7457
586.363	2145.46473
586.566	1967.88883
586.769	2069.36691
586.973	1995.37398
587.176	2143.35103
587.379	1843.1363
587.582	2244.79895
587.786	2010.17322
587.989	2170.82842
588.192	2153.91942
588.395	2183.50982
588.599	2094.73394
588.802	2166.60122
589.005	2067.25295
589.208	2308.19358
589.411	2027.08625
589.615	2223.6656
589.818	1953.0887
590.021	2293.40225
590.224	2139.12362
590.427	2538.45111
590.63	2238.45904
590.833	2382.14306
591.036	2272.27098
591.239	2255.3653
591.442	2263.81821
591.645	2295.51532
591.848	2377.91771
592.051	2284.94985
592.254	2196.19093
592.457	2322.98444
592.66	2428.61923
592.863	2542.67481
593.066	2388.48102
593.269	2494.09957
593.472	2508.88397
593.675	2496.21166
593.878	2390.59365
594.081	2599.69003
594.284	2358.90311
594.486	2711.58275
594.689	2527.89168
594.892	2422.28187
595.095	2517.33196
595.298	2568.01597
595.5	2506.77195
595.703	2625.02731
595.906	2422.28187
596.109	2610.24744
596.311	2500.43581
596.514	2667.25214
596.717	2422.28187
596.92	2682.02964
597.122	2635.58398
597.325	2755.90761
597.528	2479.31461
597.73	2606.02451
597.933	2449.74306
598.136	2707.36104
598.338	2534.22737
598.541	2618.69315
598.743	2616.58174
598.946	2677.80756
599.148	2584.90914
599.351	2644.0291
599.554	2559.56911
599.756	2753.79704
599.959	2555.3456
600.161	2909.94239
600.363	2747.46523
600.566	2808.6676
600.768	2745.35461
600.971	2848.75943
601.173	2717.91523
601.376	2954.23968
601.578	2705.25016
601.78	3034.37993
601.983	2703.13927
602.185	2880.40729
602.388	2711.58275
602.59	2867.74853
602.792	2863.52883
602.995	2914.16146
603.197	2656.6964
603.399	2933.14654
603.601	2747.46523
603.804	3002.74824
604.006	2922.59942
604.208	3002.74824
604.41	2831.87927
604.613	3072.33339
604.815	2903.61368
605.017	3038.59723
605.219	2876.18776
605.421	2905.72326
605.623	2817.1084
605.826	3141.9015
606.028	2846.64946
606.23	3082.87512
606.432	2772.79173
606.634	3411.57113
606.836	2945.8026
607.038	3120.82208
607.24	3112.38987
607.442	2985.8766
607.644	2789.67498
607.846	3129.25404
608.048	3032.27126
608.25	3158.76387
608.452	2798.11628
608.654	3152.4406
608.856	3032.27126
609.058	3137.68574
609.26	3034.37993
609.462	3221.98846
609.664	3051.24876
609.866	3268.34367
610.067	2981.65854
610.269	3207.23738
610.471	3082.87512
610.673	3196.7004
610.875	3015.40133
611.077	3243.06001
611.278	3194.59295
611.48	3103.9574
611.682	2912.05193
611.884	3285.19809
612.085	3036.48859
612.287	3297.83819
612.489	3203.02263
612.69	3348.39243
612.892	3184.05548
613.094	3386.30154
613.295	3009.07485
613.497	3205.13001
613.699	3302.05142
613.9	3276.77102
614.102	3200.91524
614.304	3337.86111
614.505	3118.71405
614.707	3371.55978
614.908	3196.7004
615.11	3386.30154
615.311	3133.46992
615.513	3234.63159
615.714	3169.30232
615.916	3470.52353
616.117	3289.41153
616.319	3436.83816
616.52	3354.711
616.722	3396.83085
616.923	3280.98459
617.124	3558.92553
617.326	3152.4406
617.527	3455.78675
617.729	3310.47768
617.93	3487.36449
618.131	3306.26459
618.333	3499.99444
618.534	3348.39243
618.735	3542.08955
618.937	3388.40744
619.138	3373.6658
619.339	3327.32937
619.54	3369.45375
619.742	3318.90366
619.943	3419.99376
620.144	3346.2862
620.345	3339.96741
620.546	3394.72502
620.748	3506.30918
620.949	3411.57113
621.15	3510.51891
621.351	3401.04244
621.552	3478.94416
621.753	3297.83819
621.954	3556.8211
622.155	3398.93665
622.356	3445.25993
622.558	3508.41405
622.759	3725.11641
622.96	3352.60483
623.161	3527.3571
623.362	3369.45375
623.563	3706.18927
623.764	3489.46953
623.965	3588.38565
624.166	3567.34308
624.366	3478.94416
624.567	3508.41405
624.768	3575.76033
624.969	3344.17995
625.17	3794.5025
625.371	3573.65605
625.572	3859.66391
625.773	3470.52353
625.973	3556.8211
626.174	3384.19563
626.375	3670.43375
626.576	3607.32237
626.777	3815.52439
626.977	3474.73388
627.178	3609.42635
627.379	3588.38565
627.58	3943.71485
627.78	3767.17112
627.981	3876.47667
628.182	3689.36383
628.382	3771.37617
628.583	3737.73364
628.784	3781.88843
628.984	3531.56646
629.185	3941.61396
629.386	3590.48981
629.586	3823.93259
629.787	3765.06857
629.987	3897.49081
630.188	3723.01347
630.388	3815.52439
630.589	3640.98389
630.79	3802.91149
630.99	3607.32237
631.191	3853.3588
631.391	3844.95171
631.591	3840.74805
631.792	3798.70704
631.992	3907.99713
632.193	3920.60405
632.393	3880.67966
632.594	3790.29789
632.794	4105.4212
632.994	3809.21803
633.195	4260.7108
633.395	3798.70704
633.595	3832.34048
633.796	3714.60152
633.996	3979.42671
634.196	3805.01369
634.397	4168.39038
634.597	3777.68358
634.797	4029.83341
634.997	3815.52439
635.198	3956.3197
635.398	3777.68358
635.598	4042.43324
635.798	3876.47667
635.998	3769.27365
636.199	3882.78112
636.399	4103.3219
636.599	3790.29789
636.799	4159.99558
636.999	3788.19556
637.199	4113.81818
637.399	4061.33159
637.599	3992.02949
637.799	3983.62772
637.999	4122.21482
638.199	4267.00387
638.399	4294.27162
638.599	4044.53314
638.799	4101.22258
638.999	3996.23025
639.199	4239.7325
639.399	3840.74805
639.599	4308.95276
639.799	4094.9245
639.999	4206.16279
640.199	4147.40275
640.399	4262.80851
640.599	3706.18927
640.799	4420.07551
640.998	4055.03232
641.198	4319.43863
641.398	4344.60254
641.598	4306.85552
641.798	4067.63066
641.997	4038.23338
642.197	4191.47433
642.397	4193.57275
642.597	4352.98981
642.796	4489.23419
642.996	4180.98194
643.196	4306.85552
643.395	4113.81818
643.595	4076.02914
643.795	4210.3593
643.994	4325.7299
644.194	4246.02621
644.394	4503.90114
644.593	4269.10152
644.793	4489.23419
644.992	4342.50566
645.192	4290.07682
645.392	4382.34255
645.591	4495.52016
645.791	4436.84344
645.99	4453.60998
646.19	4264.9062
646.389	4409.59484
646.589	4352.98981
646.788	4464.08835
646.987	4287.97939
647.187	4512.28176
647.386	4522.75704
647.586	4449.41848
647.785	4352.98981
647.984	4612.82158
648.184	4273.29675
648.383	4579.314
648.582	4403.30618
648.782	4405.40242
648.981	4480.8526
649.18	4505.99632
649.38	4361.37674
649.579	4570.93622
649.778	4420.07551
649.977	4564.65264
650.177	4329.92397
650.376	4604.44522
650.575	4342.50566
650.774	4667.25919
650.973	4763.53464
651.173	4719.58873
651.372	4516.47194
651.571	4568.84171
651.77	4453.60998
651.969	4495.52016
652.168	4474.56617
652.367	4612.82158
652.566	4614.91562
652.765	4581.40839
652.964	4629.57323
653.163	4564.65264
653.362	4606.53935
653.561	4688.1927
653.76	4581.40839
653.959	4453.60998
654.158	4575.12515
654.357	4822.11363
654.556	4449.41848
654.755	4778.18105
654.954	4547.89547
655.153	4564.65264
655.352	4660.97871
655.551	4614.91562
655.749	4656.7916
655.948	4721.68162
656.147	4681.91288
656.346	4903.67602
656.545	4669.35265
656.743	4805.37859
656.942	4801.1946
657.141	4738.42391
657.34	4750.97968
657.538	4746.79452
657.737	4654.69801
657.936	4805.37859
658.135	4629.57323
658.333	4675.63287
658.532	4704.93788
658.731	4763.53464
658.929	4575.12515
659.128	4692.37913
659.326	4656.7916
659.525	4663.07222
659.724	4704.93788
659.922	4845.12192
660.121	4809.56249
660.319	4805.37859
660.518	4600.25691
660.716	4951.76059
660.915	4872.30998
661.113	4761.4422
661.312	4721.68162
661.51	4945.48937
661.709	4698.65861
661.907	4905.7669
662.105	4713.30993
662.304	5004.01262
662.502	4773.99648
662.701	4947.5798
662.899	4799.10258
663.097	4790.73424
663.296	4671.44608
663.494	4872.30998
663.692	4876.49242
663.891	4962.21214
664.089	4746.79452
664.287	4836.75559
664.485	4694.47231
664.684	5018.64061
664.882	4859.76212
665.08	5056.25024
665.278	4880.67476
665.476	4981.0235
665.675	4849.30495
665.873	5058.33945
666.071	4909.9486
666.269	5154.41777
666.467	4803.28661
666.665	4945.48937
666.863	4824.2054
667.061	5020.73023
667.259	4976.84336
667.457	5064.60692
667.655	4997.74314
667.853	5131.44699
668.051	4949.6702
668.249	5047.89319
668.447	4899.49418
668.645	4964.30239
668.843	4970.57298
669.041	5012.37161
669.239	4755.16476
669.437	5208.70115
669.635	5056.25024
669.833	5043.71453
670.031	4868.12745
670.229	5192.00025
670.426	4922.49316
670.624	5223.31321
670.822	4907.85776
671.02	5127.27018
671.218	5110.56202
671.415	4995.65327
671.613	5047.89319
671.811	5085.49699
672.009	5143.97686
672.206	4912.03942
672.404	4897.40322
672.602	5064.60692
672.799	5250.44687
672.997	4972.66313
673.195	4899.49418
673.392	5043.71453
673.59	5164.85811
673.788	4997.74314
673.985	4899.49418
674.183	4966.39261
674.38	5006.10241
674.578	5035.35693
674.775	4744.7019
674.973	4989.3835
675.17	4863.94483
675.368	5095.94116
675.565	4924.58384
675.763	5177.38574
675.96	5146.06509
676.158	5377.71353
676.355	4744.7019
676.553	5198.26326
676.75	4788.6421
676.947	5187.82479
677.145	5022.81983
677.342	4901.58511
677.539	5091.76356
677.737	5277.57658
677.934	5112.65062
678.131	5173.20995
678.329	4974.75326
678.526	5052.07176
678.723	4905.7669
678.92	5104.29608
679.118	5075.05225
679.315	5006.10241
679.512	4840.9388
679.709	5279.66331
679.906	4976.84336
680.104	5288.01003
680.301	4899.49418
680.498	5177.38574
680.695	4815.83816
680.892	5077.14124
681.089	4920.40246
681.286	5233.7497
681.483	4922.49316
681.68	5043.71453
681.877	5072.96323
682.075	5210.78866
682.272	4995.65327
682.469	5223.31321
682.665	4863.94483
682.862	5148.15329
683.059	5062.51779
683.256	5348.5125
683.453	5077.14124
683.65	5031.17799
683.847	4776.08878
684.044	5031.17799
684.241	5024.9094
684.438	5156.50588
684.635	4949.6702
684.831	5148.15329
685.028	5026.99896
685.225	5133.53536
685.422	4872.30998
685.619	5158.59397
685.815	4958.03159
686.012	5058.33945
686.209	4922.49316
686.405	5189.91253
686.602	5192.00025
686.799	5141.8886
686.996	4955.94128
687.192	5026.99896
687.389	4939.21796
687.586	5083.40809
687.782	4926.6745
687.979	4817.93
688.175	4897.40322
688.372	5089.67473
688.568	4995.65327
688.765	5148.15329
688.962	4905.7669
689.158	5123.09328
689.355	4698.65861
689.551	5217.05104
689.748	4847.21345
689.944	5066.69603
690.14	5114.7392
690.337	5242.09847
690.533	4945.48937
690.73	5131.44699
690.926	4863.94483
691.123	4843.03037
691.319	4832.57228
691.515	5110.56202
691.712	4878.5836
691.908	5049.98249
692.104	4727.96015
692.301	5093.85237
692.497	4817.93
692.693	4947.5798
692.889	4914.13022
693.086	5010.2819
693.282	4773.99648
693.478	5056.25024
693.674	5029.08848
693.87	4978.93344
694.067	5056.25024
694.263	5029.08848
694.459	4914.13022
694.655	4863.94483
694.851	4884.85701
695.047	5214.9636
695.243	4817.93
695.439	4981.0235
695.635	5016.55097
695.831	4932.94633
696.027	4773.99648
696.224	5143.97686
696.42	4732.14572
696.615	5277.57658
696.811	4964.30239
697.007	5108.4734
697.203	4918.31174
697.399	5052.07176
697.595	4897.40322
697.791	4916.22099
697.987	4840.9388
698.183	5056.25024
698.379	4688.1927
698.575	4935.0369
698.77	4935.0369
698.966	5121.0048
699.162	4943.39892
699.358	4943.39892
699.554	4715.40289
699.749	4960.12188
699.945	4903.67602
700.141	5079.23021
700.337	4832.57228
700.532	4939.21796
700.728	4813.74629
700.924	4669.35265
701.119	4675.63287
701.315	4897.40322
701.511	4757.25726
701.706	5081.31916
701.902	4905.7669
702.097	4901.58511
702.293	4767.71944
702.489	5052.07176
702.684	5100.11866
702.88	5064.60692
703.075	4838.8472
703.271	4916.22099
703.466	4753.07223
703.662	4932.94633
703.857	4922.49316
704.053	4897.40322
704.248	4721.68162
704.443	5204.52607
704.639	4832.57228
704.834	5006.10241
705.03	4713.30993
705.225	5072.96323
705.42	4629.57323
705.616	4922.49316
705.811	4782.36554
706.006	4813.74629
706.202	4727.96015
706.397	5018.64061
706.592	4838.8472
706.787	4828.38889
706.983	4809.56249
707.178	5014.4613
707.373	4826.29716
707.568	4805.37859
707.763	4688.1927
707.959	4964.30239
708.154	4811.6544
708.349	4914.13022
708.544	4815.83816
708.739	4907.85776
708.934	4813.74629
709.129	4997.74314
709.324	4723.77448
709.519	4907.85776
709.714	4667.25919
709.909	4939.21796
710.104	4935.0369
710.299	5033.26747
710.494	4903.67602
710.689	4817.93
710.884	4681.91288
711.079	5018.64061
711.274	4763.53464
711.469	5060.42863
711.664	4943.39892
711.859	5108.4734
712.054	4918.31174
712.249	5004.01262
712.443	4863.94483
712.638	4809.56249
712.833	4958.03159
713.028	4932.94633
713.223	4803.28661
713.417	4941.30845
713.612	4939.21796
713.807	4799.10258
714.002	4855.57932
714.196	4947.5798
714.391	4748.88711
714.586	4681.91288
714.78	4570.93622
714.975	5014.4613
715.17	4623.29153
715.364	5106.38475
715.559	5001.92282
715.754	4813.74629
715.948	4696.56547
716.143	4671.44608
716.337	4625.38545
716.532	4916.22099
716.726	4679.81957
716.921	4805.37859
717.115	4824.2054
717.31	4826.29716
717.504	4520.66203
717.699	4849.30495
717.893	4522.75704
718.088	4786.54994
718.282	4771.90415
718.476	4809.56249
718.671	4541.61116
718.865	4905.7669
719.059	4539.51635
719.254	4713.30993
719.448	4495.52016
719.642	4889.03917
719.837	4541.61116
720.031	4916.22099
720.225	4520.66203
720.419	4658.88516
720.614	4730.05295
720.808	4788.6421
721.002	4654.69801
721.196	4932.94633
721.39	4780.27331
721.585	4803.28661
721.779	4688.1927
721.973	4949.6702
722.167	4547.89547
722.361	4491.32954
722.555	4677.72623
722.749	4771.90415
722.943	4505.99632
723.137	4730.05295
723.331	4411.69102
723.525	4771.90415
723.719	4415.88331
723.913	4700.75172
724.107	4432.65159
724.301	4686.09945
724.495	4373.95649
724.689	4658.88516
724.883	4430.55563
725.077	4788.6421
725.271	4633.76092
725.465	4713.30993
725.659	4652.60441
725.853	4742.60926
726.046	4397.01732
726.24	4809.56249
726.434	4432.65159
726.628	4830.4806
726.822	4464.08835
727.015	4746.79452
727.209	4248.12407
727.403	4554.17957
727.596	4480.8526
727.79	4755.16476
727.984	4508.09149
728.177	4924.58384
728.371	4635.85473
728.565	4614.91562
728.758	4650.51077
728.952	4750.97968
729.146	4769.81181
729.339	4778.18105
729.533	4549.99019
729.726	4805.37859
729.92	4627.47935
730.113	4690.28592
730.307	4566.74719
730.5	4679.81957
730.694	4606.53935
730.887	4669.35265
731.081	4688.1927
731.274	4855.57932
731.468	4635.85473
731.661	4734.23847
731.854	4669.35265
732.048	4859.76212
732.241	4690.28592
732.435	4715.40289
732.628	4637.94852
732.821	4677.72623
733.014	4660.97871
733.208	4780.27331
733.401	4679.81957
733.594	4537.42151
733.788	4675.63287
733.981	4721.68162
734.174	4707.03093
734.367	4627.47935
734.56	4688.1927
734.754	4746.79452
734.947	4598.16272
735.14	4721.68162
735.333	4673.53948
735.526	4598.16272
735.719	4487.13883
735.912	4625.38545
736.105	4556.27423
736.298	4554.17957
736.491	4499.71069
736.684	4654.69801
736.877	4562.55807
737.07	4732.14572
737.263	4610.72753
737.456	4763.53464
737.649	4614.91562
737.842	4704.93788
738.035	4344.60254
738.228	4665.16572
738.421	4566.74719
738.614	4667.25919
738.807	4713.30993
739	4591.88001
739.192	4436.84344
739.385	4675.63287
739.578	4493.42486
739.771	4686.09945
739.964	4461.99272
740.156	4612.82158
740.349	4575.12515
740.542	4591.88001
740.735	4646.32344
740.927	4627.47935
741.12	4625.38545
741.313	4750.97968
741.505	4677.72623
741.698	4673.53948
741.891	4508.09149
742.083	4679.81957
742.276	4403.30618
742.468	4832.57228
742.661	4373.95649
742.854	4589.78574
743.046	4562.55807
743.239	4482.94803
743.431	4503.90114
743.624	4424.26763
743.816	4522.75704
744.009	4422.17158
744.201	4315.24435
744.393	4493.42486
744.586	4233.43859
744.778	4514.37686
744.971	4355.08658
745.163	4654.69801
745.355	4577.21959
745.548	4604.44522
745.74	4510.18664
745.932	4558.36887
746.125	4508.09149
746.317	4535.32666
746.509	4579.314
746.702	4820.02183
746.894	4445.22689
747.086	4495.52016
747.278	4352.98981
747.471	4665.16572
747.663	4522.75704
747.855	4665.16572
748.047	4432.65159
748.239	4531.13687
748.431	4306.85552
748.623	4721.68162
748.815	4503.90114
749.008	4635.85473
749.2	4491.32954
749.392	4617.00963
749.584	4480.8526
749.776	4570.93622
749.968	4445.22689
750.16	4503.90114
750.352	4344.60254
750.544	4480.8526
750.736	4453.60998
750.928	4581.40839
751.12	4269.10152
751.311	4422.17158
751.503	4340.40877
751.695	4373.95649
751.887	4243.92833
752.079	4420.07551
752.271	4363.47342
752.463	4535.32666
752.654	4405.40242
752.846	4583.50276
753.038	4220.85021
753.23	4493.42486
753.421	4415.88331
753.613	4413.78717
753.805	4346.69939
753.997	4539.51635
754.188	4449.41848
754.38	4447.32269
754.572	4359.28004
754.763	4386.53545
754.955	4399.11363
755.146	4478.75714
755.338	4233.43859
755.53	4329.92397
755.721	4424.26763
755.913	4258.61306
756.104	4327.82695
756.296	4438.93934
756.487	4413.78717
756.679	4279.58944
756.87	4254.41753
757.062	4346.69939
757.253	4344.60254
757.445	4281.68696
757.636	4304.75825
757.827	4346.69939
758.019	4111.71896
758.21	4164.19302
758.401	4256.51531
758.593	4346.69939
758.784	3920.60405
758.975	4176.78484
759.167	4350.89303
759.358	4208.26106
759.549	4122.21482
759.74	4378.14956
759.932	4122.21482
760.123	4212.45752
760.314	4172.58765
760.505	4260.7108
760.696	3895.38949
760.888	4220.85021
761.079	3966.82319
761.27	4153.69926
761.461	4000.43094
761.652	4103.3219
761.843	4071.82994
762.034	4185.17896
762.225	4227.1445
762.416	4271.19914
762.607	3954.21894
762.798	4315.24435
762.989	4168.39038
763.18	4092.8251
763.371	3912.19951
763.562	3962.62186
763.753	3775.58113
763.944	3920.60405
764.135	3994.12988
764.326	4252.31973
764.517	3960.52116
764.708	4212.45752
764.899	3979.42671
765.089	4034.03344
765.28	3983.62772
765.471	4139.00711
765.662	3958.42044
765.853	4084.42729
766.043	3821.83057
766.234	4239.7325
766.425	3960.52116
766.615	4008.83205
766.806	3973.12504
766.997	3973.12504
767.187	3868.07045
767.378	4162.09431
767.569	3737.73364
767.759	4143.20497
767.95	3823.93259
768.141	3996.23025
768.331	3733.52797
768.522	3916.40182
768.712	3992.02949
768.903	4061.33159
769.093	4042.43324
769.284	3985.72819
769.474	3792.40021
769.665	3996.23025
769.855	3615.7382
770.046	3968.92383
770.236	3777.68358
770.426	3739.83644
770.617	3533.67112
770.807	3794.5025
770.998	3657.81284
771.188	3687.26056
771.378	3800.80928
771.569	3670.43375
771.759	3657.81284
771.949	3680.95065
772.139	3975.22562
772.33	3701.98302
772.52	3598.90624
772.71	3775.58113
772.9	3693.5703
773.09	3849.1553
773.281	3781.88843
773.471	3792.40021
773.661	3729.32223
773.851	3636.77646
774.041	3609.42635
774.231	3634.67272
774.421	3422.09937
774.611	3731.42511
774.802	3504.20428
774.992	3638.88019
775.182	3601.0103
775.372	3767.17112
775.562	3638.88019
775.752	3767.17112
775.942	3424.20497
776.131	3613.63427
776.321	3371.55978
776.511	3640.98389
776.701	3411.57113
776.891	3596.80216
777.081	3243.06001
777.271	3632.56896
777.461	3371.55978
777.651	3556.8211
777.84	3325.22297
778.03	3561.02995
778.22	3234.63159
778.41	3430.52164
778.599	3459.99735
778.789	3455.78675
778.979	3462.10262
779.169	3419.99376
779.358	3299.94482
779.548	3590.48981
779.738	3236.73872
779.927	3588.38565
780.117	3289.41153
780.307	3531.56646
780.496	3352.60483
780.686	3451.57608
780.875	3211.45205
781.065	3487.36449
781.254	3226.2029
781.444	3499.99444
781.633	3403.14822
781.823	3537.88037
782.012	3152.4406
782.202	3622.04988
782.391	3205.13001
782.581	3158.76387
782.77	3236.73872
782.96	3361.02943
783.149	3070.225
783.338	3249.38115
783.528	3011.18369
783.717	3268.34367
783.906	3171.40997
784.096	3232.52444
784.285	3032.27126
784.474	3165.08699
784.663	3137.68574
784.853	3304.15801
785.042	3042.81447
785.231	3221.98846
785.42	3084.98342
785.61	3184.05548
785.799	3019.6189
785.988	3101.84925
786.177	2998.53042
786.366	3042.81447
786.555	3192.48549
786.744	3238.84584
786.933	3066.00817
787.122	3293.62489
787.312	3293.62489
787.501	3325.22297
787.69	3057.57431
787.879	3238.84584
788.068	2907.83283
788.257	3190.37801
788.445	3150.33281
788.634	3011.18369
788.823	2656.6964
789.012	2899.39446
789.201	2890.95586
789.39	3049.14021
789.579	2637.69528
789.768	2800.22657
789.957	2831.87927
790.145	2998.53042
790.334	2728.4691
790.523	2865.63869
790.712	2905.72326
790.9	2926.81831
791.089	2648.25159
791.278	2876.18776
791.467	2827.65909
791.655	3059.6828
791.844	2798.11628
792.033	2848.75943
792.221	2656.6964
792.41	2789.67498
792.599	2627.13867
792.787	3023.83642
792.976	2895.17519
793.164	2909.94239
793.353	3000.63933
793.541	3103.9574
793.73	2791.78533
793.918	2983.76757
794.107	2971.11312
794.295	3133.46992
794.484	2766.46029
794.672	2762.23926
794.861	2629.25002
795.049	2796.00598
795.238	2639.80657
795.426	2928.92773
795.614	2711.58275
795.803	2971.11312
795.991	2663.02988
796.179	2890.95586
796.368	2907.83283
796.556	2796.00598
796.744	2804.44711
796.932	2861.41896
797.121	2620.80455
797.309	2798.11628
797.497	2671.47435
797.685	2709.4719
797.874	2597.57851
798.062	2785.45425
798.25	2390.59365
798.438	2709.4719
798.626	2479.31461
798.814	2728.4691
799.002	2635.58398
799.19	2755.90761
799.378	2648.25159
799.566	2749.57585
799.755	2589.13231
799.943	2789.67498
800.131	2510.99599
800.318	2796.00598
800.506	2434.95649
800.694	2570.12766
800.882	2426.50679
801.07	2796.00598
801.258	2491.98746
801.446	2669.36325
801.634	2584.90914
801.822	2652.47402
802.01	2527.89168
802.197	2787.56462
802.385	2439.18128
802.573	2578.57429
802.761	2584.90914
802.949	2707.36104
803.136	2584.90914
803.324	2804.44711
803.512	2648.25159
803.699	2561.68084
803.887	2631.36135
804.075	2669.36325
804.262	2418.05691
804.45	2770.68126
804.638	2405.38178
804.825	2536.33925
805.013	2437.06889
805.201	2736.91196
805.388	2599.69003
805.576	2523.66783
805.763	2565.90427
805.951	2525.77976
806.138	2589.13231
806.326	2703.13927
806.513	2644.0291
806.701	2673.58543
806.888	2420.16939
807.075	2791.78533
807.263	2616.58174
807.45	2686.25167
807.638	2468.75359
807.825	2726.35835
808.012	2441.29366
808.2	2690.47365
808.387	2589.13231
808.574	2743.24396
808.761	2587.02073
808.949	2770.68126
809.136	2796.00598
809.323	3068.11659
809.51	2722.13682
809.698	2787.56462
809.885	2348.33909
810.072	2513.10799
810.259	2614.47032
810.446	2692.58462
810.633	2544.78663
810.82	2796.00598
811.008	2411.71939
811.195	2730.57984
811.382	2483.53894
811.569	2907.83283
811.756	2660.91874
811.943	2779.12305
812.13	2679.91861
812.317	2823.43886
812.504	2633.47267
812.691	2779.12305
812.878	2671.47435
813.064	2753.79704
813.251	2677.80756
813.438	2833.98934
813.625	2728.4691
813.812	2833.98934
813.999	2692.58462
814.186	2909.94239
814.372	2880.40729
814.559	2964.78569
814.746	2732.69056
814.933	2747.46523
815.12	2690.47365
815.306	2918.38047
815.493	2701.02836
815.68	2952.13043
815.866	2553.23383
816.053	2787.56462
816.24	2517.33196
816.426	2774.90219
816.613	2542.67481
816.799	2798.11628
816.986	2711.58275
817.173	2825.54898
817.359	2631.36135
817.546	2804.44711
817.732	2434.95649
817.919	2916.27097
818.105	2656.6964
818.292	2890.95586
818.478	2709.4719
818.665	2758.01818
818.851	2732.69056
819.037	2770.68126
819.224	2673.58543
819.41	2724.24759
819.597	2724.24759
819.783	2842.42948
819.969	2606.02451
820.156	2871.96817
820.342	2610.24744
820.528	2850.86939
820.714	2538.45111
820.901	2758.01818
821.087	2510.99599
821.273	2787.56462
821.459	2479.31461
821.646	2741.13331
821.832	2542.67481
822.018	2736.91196
822.204	2536.33925
822.39	2888.84618
822.576	2401.15665
822.762	2722.13682
822.948	2384.25572
823.134	2665.14102
823.32	2544.78663
823.507	2781.23347
823.693	2517.33196
823.879	2612.35889
824.065	2530.00359
824.25	2580.68592
824.436	2675.6965
824.622	2863.52883
824.808	2477.20243
824.994	2568.01597
825.18	2405.38178
825.366	2639.80657
825.552	2487.76322
825.738	2532.11549
825.923	2280.7236
826.109	2441.29366
826.295	2263.81821
826.481	2544.78663
826.667	2479.31461
826.852	2561.68084
827.038	2348.33909
827.224	2570.12766
827.409	2348.33909
827.595	2629.25002
827.781	2403.26922
827.966	2322.98444
828.152	2153.91942
828.338	2487.76322
828.523	2257.47854
828.709	2561.68084
828.894	2215.21201
829.08	2399.04407
829.266	2270.1578
829.451	2407.49433
829.637	2073.59482
829.822	2322.98444
830.008	2141.23733
830.193	2407.49433
830.378	2242.68566
830.564	2453.9677
830.749	2162.37399
830.935	2525.77976
831.12	2213.09859
831.305	2373.69231
831.491	2367.35414
831.676	2382.14306
831.861	2221.55221
832.047	2426.50679
832.232	2145.46473
832.417	2301.85449
832.602	2213.09859
832.788	2179.28272
832.973	2225.77897
833.158	2363.12865
833.343	2219.43882
833.528	2263.81821
833.714	2253.25205
833.899	2274.38415
834.084	2096.84781
834.269	2306.08056
834.454	2120.09989
834.639	2263.81821
834.824	1946.7457
835.009	2101.07553
835.194	2067.25295
835.379	2153.91942
835.564	2063.02499
835.749	2010.17322
835.934	1921.37318
836.119	2162.37399
836.304	2069.36691
836.489	2177.16916
836.674	2018.62979
836.859	2183.50982
837.044	2077.8227
837.228	2287.06296
837.413	2010.17322
837.598	2251.13879
837.783	1972.11738
837.968	2246.91224
838.152	2063.02499
838.337	2291.28916
838.522	2122.21367
838.707	2145.46473
838.891	1910.80105
839.076	2056.68301
839.261	1984.80289
839.445	2172.94201
839.63	1919.25876
839.815	2014.40152
839.999	1967.88883
840.184	1891.77087
840.368	1754.31906
840.553	2204.64483
840.737	1743.74511
840.922	2001.71655
841.106	1942.51701
841.291	2134.89618
841.475	1957.31734
841.66	2008.05906
841.844	1908.68661
842.029	2092.62006
842.213	1906.57216
842.397	1972.11738
842.582	1684.52939
842.766	1993.25977
842.951	1680.29961
843.135	1936.17392
843.319	1665.49526
843.504	1900.22878
843.688	1788.15508
843.872	1889.65638
844.056	1832.56322
844.241	1891.77087
844.425	1612.62159
844.609	1790.26979
844.793	1680.29961
844.977	1881.19837
845.161	1597.81672
845.346	1697.21869
845.53	1781.8109
845.714	1775.46669
845.898	1722.59694
846.082	1737.40069
846.266	1731.05625
846.45	1775.46669
846.634	1733.17107
846.818	1756.43384
847.002	1802.958
847.186	1891.77087
847.37	1648.57585
847.554	1648.57585
847.738	1443.41937
847.922	1777.58143
848.106	1532.25132
848.29	1826.21932
848.473	1587.24175
848.657	1612.62159
848.841	1530.13629
849.025	1654.92065
849.209	1576.66675
849.392	1621.08147
849.576	1657.03557
849.76	1638.00113
849.944	1568.20671
850.127	1722.59694
850.311	1470.91504
850.495	1673.9549
850.678	1456.10968
850.862	1576.66675
851.046	1377.85294
851.229	1650.69078
851.413	1261.52829
851.596	1578.78175
851.78	1502.64077
851.964	1530.13629
852.147	1301.71254
852.331	1483.60535
852.514	1327.09245
852.698	1570.32172
852.881	1333.43747
853.065	1475.14515
853.248	1492.06554
853.431	1511.10094
853.615	1329.20745
853.798	1536.48138
853.982	1208.65573
854.165	1525.90622
854.348	1418.03876
854.532	1555.51661
854.715	1227.68963
854.898	1451.87957
855.081	1280.56283
855.265	1352.4726
855.448	1310.17248
855.631	1329.20745
855.814	1308.05749
855.997	1411.69361
856.181	1267.87311
856.364	1267.87311
856.547	1384.19805
856.73	1485.72039
856.913	1206.54086
857.096	1293.25263
857.279	1297.48258
857.462	1358.81767
857.645	1246.72379
857.828	1375.73791
858.011	1223.45986
858.194	1299.59756
858.377	1172.70354
858.56	1371.50784
858.743	1100.80262
858.926	1363.04772
859.109	1136.75245
859.292	1327.09245
859.475	1130.40827
859.658	1206.54086
859.841	1206.54086
860.023	1282.67779
860.206	1011.99175
860.389	1229.80453
860.572	1014.10618
860.755	1236.14923
860.937	1373.62287
861.12	1263.64323
861.303	1219.23009
861.486	1255.18349
861.668	1128.29355
861.851	1227.68963
862.034	1041.59428
862.216	1195.9666
862.399	1045.82331
862.581	1168.47394
862.764	1018.33505
862.947	997.19094
863.129	1045.82331
863.312	1193.85176
863.494	1033.1363
863.677	1105.03195
863.859	1088.11478
864.042	959.13317
864.224	982.39044
864.406	1003.53411
864.589	1227.68963
864.771	1075.42711
864.954	910.50712
865.136	1140.98193
865.318	927.42009
865.501	1014.10618
865.683	802.69936
865.865	838.63277
866.048	787.90403
866.23	971.81885
866.412	859.77128
866.594	1077.54171
866.777	1039.47978
866.959	1037.36528
867.141	940.10513
867.323	948.56196
867.505	866.113
867.687	885.13862
867.869	963.3617
868.052	980.27611
868.234	902.05083
868.416	948.56196
868.598	916.84943
868.78	1003.53411
868.962	1028.90734
869.144	961.24743
869.326	703.36879
869.508	1005.64851
869.69	861.88518
869.872	963.3617
870.054	749.86112
870.236	952.79042
870.417	739.29423
870.599	916.84943
870.781	773.10918
870.963	937.99093
871.145	851.31577
871.327	811.15404
871.508	770.99567
871.69	893.59466
871.872	887.25261
872.054	785.79045
872.235	851.31577
872.417	914.73532
872.599	737.18088
872.78	853.42963
872.962	800.58571
873.144	982.39044
873.325	859.77128
873.507	773.10918
873.689	821.7226
873.87	910.50712
874.052	775.2227
874.233	724.50103
874.415	716.048
874.596	834.40517
874.778	684.35073
874.959	809.04035
875.141	745.63433
875.322	768.88217
875.503	743.52096
875.685	914.73532
875.866	656.88183
876.048	825.95009
876.229	743.52096
876.41	842.8604
876.592	768.88217
876.773	937.99093
876.954	751.97453
877.136	914.73532
877.317	732.95422
877.498	815.38144
877.679	897.82273
877.86	834.40517
878.042	654.76892
878.223	857.65739
878.404	828.06384
878.585	872.4548
878.766	777.33623
878.947	830.17761
879.128	878.79667
879.309	914.73532
879.49	785.79045
879.672	912.62122
879.853	754.08795
880.034	792.13122
880.215	830.17761
880.396	802.69936
880.576	785.79045
880.757	868.22692
880.938	722.38775
881.119	944.33353
881.3	739.29423
881.481	902.05083
881.662	809.04035
881.843	863.99908
882.023	809.04035
882.204	959.13317
882.385	764.6552
882.566	986.61912
882.747	745.63433
882.927	868.22692
883.108	794.24483
883.289	844.97423
883.469	800.58571
883.65	944.33353
883.831	957.01892
884.011	1016.22061
884.192	893.59466
884.373	853.42963
884.553	855.54351
884.734	874.56875
884.914	885.13862
885.095	887.25261
885.275	811.15404
885.456	1151.5557
885.636	766.76868
885.817	1018.33505
885.997	859.77128
886.178	868.22692
886.358	804.81301
886.538	912.62122
886.719	929.53424
886.899	1026.79287
887.08	783.67688
887.26	1028.90734
887.44	893.59466
887.621	1001.41971
887.801	821.7226
887.981	1016.22061
888.161	986.61912
888.342	946.44774
888.522	825.95009
888.702	980.27611
888.882	872.4548
889.062	861.88518
889.242	764.6552
889.423	855.54351
889.603	766.76868
889.783	870.34086
889.963	720.27449
890.143	952.79042
890.323	914.73532
890.503	995.07656
890.683	817.49515
890.863	969.70455
891.043	754.08795
891.223	954.90467
891.403	821.7226
891.583	868.22692
891.763	876.6827
891.943	931.6484
892.122	728.7276
892.302	963.3617
892.482	878.79667
892.662	973.93315
892.842	885.13862
893.022	944.33353
893.201	880.91064
893.381	980.27611
893.561	838.63277
893.741	891.48064
893.92	680.12461
894.1	874.56875
894.28	804.81301
894.459	800.58571
894.639	718.16124
894.819	792.13122
894.998	732.95422
895.178	834.40517
895.357	741.40759
895.537	745.63433
895.716	678.01157
895.896	796.35845
896.075	724.50103
896.255	728.7276
896.434	707.59515
896.614	927.42009
896.793	667.44655
896.973	724.50103
897.152	749.86112
897.331	749.86112
897.511	559.70082
897.69	618.85129
897.87	699.14248
898.049	726.61431
898.228	576.59991
898.407	697.02933
898.587	705.48196
898.766	694.9162
898.945	570.26265
899.124	678.01157
899.304	639.97888
899.483	766.76868
899.662	644.20454
899.841	699.14248
900.02	722.38775
900.199	817.49515
900.378	716.048
900.557	758.31482
900.737	616.7386
900.916	718.16124
901.095	515.34488
901.274	688.57688
901.453	608.28796
901.632	604.06272
901.811	625.18944
901.989	601.95012
902.168	506.89684
902.347	646.31739
902.526	563.92551
902.705	580.82481
902.884	521.68107
903.063	597.72496
903.242	593.49984
903.42	420.31815
903.599	479.44231
903.778	534.35382
903.957	443.54405
904.135	544.91483
904.314	382.31634
904.493	589.27478
904.672	477.33052
904.85	606.17534
905.029	456.21352
905.207	462.54846
905.386	411.87285
905.565	490.00145
905.743	454.1019
905.922	490.00145
906.1	437.20952
906.279	481.5541
906.457	316.8816
906.636	483.66592
906.814	447.76714
906.993	367.53931
907.171	346.43071
907.35	475.21875
907.528	371.76124
907.707	413.98415
907.885	337.98775
908.063	460.4368
908.242	346.43071
908.42	344.31995
908.598	371.76124
908.777	354.87394
908.955	295.77723
909.133	369.65026
909.311	331.65572
909.49	283.11549
909.668	278.89506
909.846	359.09566
910.024	337.98775
910.202	348.54149
910.38	327.43445
910.559	333.76638
910.737	413.98415
910.915	397.09419
911.093	304.21876
911.271	369.65026
911.449	293.6669
911.627	369.65026
911.805	302.10835
911.983	428.76371
912.161	325.32385
912.339	356.9848
912.517	285.22573
912.695	348.54149
912.872	243.02442
913.05	403.4278
913.228	356.9848
913.406	437.20952
913.584	333.76638
913.762	289.44628
913.939	369.65026
914.117	382.31634
914.295	344.31995
914.473	352.76311
914.65	352.76311
914.828	295.77723
915.006	318.99213
915.184	473.107
915.361	321.10269
915.539	359.09566
915.716	356.9848
915.894	350.65229
916.072	306.32919
916.249	289.44628
916.427	318.99213
916.604	403.4278
916.782	327.43445
916.959	382.31634
917.137	272.56455
917.314	337.98775
917.492	262.01407
917.669	285.22573
917.847	259.90403
918.024	348.54149
918.201	365.42837
918.379	321.10269
918.556	272.56455
918.733	329.54508
918.911	253.57403
919.088	310.5501
919.265	240.91455
919.442	302.10835
919.62	272.56455
919.797	344.31995
919.974	143.8823
920.151	245.1343
920.328	255.68401
920.506	297.88759
920.683	209.26891
920.86	190.28367
921.037	205.04983
921.214	268.3443
921.391	211.37848
921.568	314.77108
921.745	200.83082
921.922	314.77108
922.099	209.26891
922.276	133.33796
922.453	234.58507
922.63	234.58507
922.807	302.10835
922.984	299.99796
923.161	209.26891
923.338	192.39306
923.514	249.35413
923.691	211.37848
923.868	251.46407
924.045	211.37848
924.222	200.83082
924.399	230.36551
924.575	211.37848
924.752	243.02442
924.929	202.94032
925.105	196.6119
925.282	224.03632
925.459	209.26891
925.635	217.70731
925.812	196.6119
925.989	232.47528
926.165	236.69488
926.342	181.84631
926.518	167.08173
926.695	243.02442
926.871	183.95562
927.048	173.40929
927.224	259.90403
927.401	243.02442
927.577	99.59967
927.754	150.20917
927.93	143.8823
928.107	89.05761
928.283	236.69488
928.459	253.57403
928.636	93.27437
928.812	116.46812
928.988	150.20917
929.165	103.81665
929.341	179.73703
929.517	158.64528
929.693	207.15936
929.87	145.99124
930.046	135.44678
930.222	105.92518
930.398	137.55563
930.574	183.95562
930.751	158.64528
930.927	192.39306
931.103	120.68545
931.279	141.77339
931.455	120.68545
931.631	124.90287
931.807	118.57677
931.983	150.20917
932.159	141.77339
932.335	150.20917
932.511	120.68545
932.687	116.46812
932.863	127.01161
933.039	95.38278
933.215	202.94032
933.391	84.84094
933.566	108.03372
933.742	131.22915
933.918	61.65088
934.094	82.73264
934.27	131.22915
934.445	156.53622
934.621	108.03372
934.797	110.14229
934.973	72.19148
935.148	89.05761
935.324	124.90287
935.5	95.38278
935.675	116.46812
935.851	139.6645
936.027	108.03372
936.202	152.31817
936.378	42.67924
936.553	34.24801
936.729	103.81665
936.904	101.70815
937.08	74.29967
937.255	78.51611
937.431	91.16598
937.606	78.51611
937.782	36.35578
937.957	67.97517
938.133	76.40788
938.308	-33.18815
938.483	93.27437
938.659	44.78711
938.834	15.2791
939.009	34.24801
939.185	61.65088
939.36	82.73264
939.535	93.27437
939.71	86.94927
939.886	57.4348
940.061	112.25088
940.236	11.06405
940.411	97.49122
940.586	11.06405
940.761	8.95656
940.937	91.16598
941.112	15.2791
941.287	110.14229
941.462	-100.5989
941.637	65.86705
941.812	59.54283
941.987	21.60186
942.162	-73.21644
942.337	70.08331
942.512	15.2791
942.687	6.8491
942.862	46.895
943.037	76.40788
943.212	11.06405
943.386	25.81715
943.561	-10.00976
943.736	19.49425
943.911	91.16598
944.086	49.00291
944.26	-5.79519
944.435	17.38667
944.61	32.14026
944.785	19.49425
944.959	57.4348
945.134	32.14026
945.309	114.35949
945.483	15.2791
945.658	40.5714
945.833	8.95656
946.007	57.4348
946.182	76.40788
946.357	57.4348
946.531	6.8491
946.706	51.11085
946.88	101.70815
947.055	15.2791
947.229	-10.00976
947.404	-41.61591
947.578	67.97517
947.752	25.81715
947.927	53.21881
948.101	27.92483
948.276	59.54283
948.45	17.38667
948.624	17.38667
948.799	74.29967
948.973	-26.86706
949.147	-5.79519
949.321	74.29967
949.496	21.60186
949.67	78.51611
949.844	32.14026
950.018	23.70949
950.193	42.67924
950.367	93.27437
950.541	-1.58052
950.715	49.00291
950.889	-26.86706
951.063	133.33796
951.237	13.17157
951.411	0.52684
951.585	44.78711
951.759	40.5714
951.933	78.51611
952.107	6.8491
952.281	4.74166
952.455	57.4348
952.629	-22.65289
952.803	78.51611
952.977	-3.68787
953.151	25.81715
953.325	67.97517
953.499	42.67924
953.672	65.86705
953.846	8.95656
954.02	78.51611
954.194	-1.58052
954.368	27.92483
954.541	65.86705
954.715	30.03253
954.889	57.4348
955.062	40.5714
955.236	11.06405
955.41	0.52684
955.583	91.16598
955.757	55.32679
955.93	15.2791
956.104	6.8491
956.278	-7.90249
956.451	17.38667
956.625	4.74166
956.798	99.59967
956.972	-58.47023
957.145	-1.58052
957.319	34.24801
957.492	-7.90249
957.665	49.00291
957.839	4.74166
958.012	51.11085
958.185	82.73264
958.359	-12.11701
958.532	76.40788
958.705	38.46358
958.879	-22.65289
959.052	-18.43861
959.225	15.2791
959.398	-26.86706
959.572	74.29967
959.745	42.67924
959.918	6.8491
960.091	42.67924
960.264	-33.18815
960.438	-69.00336
960.611	53.21881
960.784	61.65088
960.957	76.40788
961.13	36.35578
961.303	34.24801
961.476	36.35578
961.649	25.81715
961.822	-28.97412
961.995	61.65088
962.168	19.49425
962.341	34.24801
962.514	-28.97412
962.686	-10.00976
962.859	55.32679
963.032	-10.00976
963.205	-16.33143
963.378	-5.79519
963.551	-18.43861
963.723	44.78711
963.896	-1.58052
964.069	23.70949
964.242	34.24801
964.414	44.78711
964.587	-10.00976
964.76	36.35578
964.932	57.4348
965.105	70.08331
965.278	19.49425
965.45	15.2791
965.623	15.2791
965.795	21.60186
965.968	49.00291
966.14	78.51611
966.313	27.92483
966.485	59.54283
966.658	-31.08114
966.83	32.14026
967.003	25.81715
967.175	36.35578
967.348	72.19148
967.52	46.895
967.692	8.95656
967.865	15.2791
968.037	-28.97412
968.209	15.2791
968.382	-10.00976
968.554	53.21881
968.726	70.08331
968.898	15.2791
969.071	40.5714
969.243	36.35578
969.415	32.14026
969.587	55.32679
969.759	13.17157
969.932	-5.79519
970.104	55.32679
970.276	32.14026
970.448	91.16598
970.62	59.54283
970.792	-58.47023
970.964	17.38667
971.136	30.03253
971.308	19.49425
971.48	23.70949
971.652	-1.58052
971.824	-66.89679
971.996	49.00291
972.168	44.78711
972.339	11.06405
972.511	21.60186
972.683	8.95656
972.855	25.81715
973.027	-52.15005
973.199	-7.90249
973.37	17.38667
973.542	40.5714
973.714	40.5714
973.886	49.00291
974.057	30.03253
974.229	2.63424
974.401	103.81665
974.572	6.8491
974.744	40.5714
974.915	61.65088
975.087	8.95656
975.259	49.00291
975.43	32.14026
975.602	-14.22423
975.773	61.65088
975.945	8.95656
976.116	-5.79519
976.288	25.81715
976.459	91.16598
976.63	76.40788
976.802	34.24801
976.973	23.70949
977.145	34.24801
977.316	-1.58052
977.487	74.29967
977.659	-12.11701
977.83	-10.00976
978.001	51.11085
978.172	27.92483
978.344	34.24801
978.515	11.06405
978.686	-52.15005
978.857	-5.79519
979.028	-18.43861
979.2	61.65088
979.371	65.86705
979.542	-35.29512
979.713	-10.00976
979.884	23.70949
980.055	67.97517
980.226	76.40788
980.397	-10.00976
980.568	42.67924
980.739	-73.21644
980.91	103.81665
981.081	32.14026
981.252	46.895
981.423	17.38667
981.594	127.01161
981.765	36.35578
981.936	-24.75999
982.106	-24.75999
982.277	-10.00976
982.448	-50.04327
982.619	78.51611
982.79	76.40788
982.96	17.38667
983.131	57.4348
983.302	57.4348
983.472	-12.11701
983.643	36.35578
983.814	32.14026
983.984	25.81715
984.155	17.38667
984.326	40.5714
984.496	-35.29512
984.667	-12.11701
984.837	25.81715
985.008	44.78711
985.178	44.78711
985.349	15.2791
985.519	-75.32294
985.69	53.21881
985.86	-39.50901
986.031	-12.11701
986.201	-69.00336
986.371	82.73264
986.542	-10.00976
986.712	78.51611
986.882	-31.08114
987.053	67.97517
987.223	-16.33143
987.393	-26.86706
987.563	8.95656
987.734	-50.04327
987.904	-20.54576
988.074	-26.86706
988.244	49.00291
988.414	-24.75999
988.585	67.97517
988.755	27.92483
988.925	70.08331
989.095	55.32679
989.265	97.49122
989.435	-54.2568
989.605	51.11085
989.775	30.03253
989.945	44.78711
990.115	38.46358
990.285	-54.2568
990.455	49.00291
990.625	-7.90249
990.795	-5.79519
990.965	-24.75999
991.134	89.05761
991.304	-60.57691
991.474	-41.61591
991.644	17.38667
991.814	-69.00336
991.984	15.2791
992.153	30.03253
992.323	0.52684
992.493	53.21881
992.662	84.84094
992.832	32.14026
993.002	15.2791
993.171	-12.11701
993.341	53.21881
993.511	55.32679
993.68	32.14026
993.85	34.24801
994.019	32.14026
994.189	19.49425
994.358	-28.97412
994.528	-41.61591
994.697	34.24801
994.867	-10.00976
995.036	-20.54576
995.206	74.29967
995.375	-10.00976
995.544	67.97517
995.714	11.06405
995.883	-39.50901
996.052	2.63424
996.222	19.49425
996.391	59.54283
996.56	23.70949
996.73	0.52684
996.899	99.59967
997.068	76.40788
997.237	-26.86706
997.406	34.24801
997.576	-26.86706
997.745	-18.43861
997.914	42.67924
998.083	27.92483
998.252	-12.11701
998.421	-22.65289
998.59	0.52684
998.759	17.38667
998.928	15.2791
999.097	65.86705
999.266	-43.72279
999.435	-18.43861
999.604	-24.75999
999.773	-7.90249
999.942	42.67924
1000.111	-10.00976
1000.28	-5.79519
1000.448	-18.43861
1000.617	-31.08114
1000.786	40.5714
1000.955	-1.58052
1001.124	-37.40208
1001.292	49.00291
1001.461	-43.72279
1001.63	-10.00976
1001.798	25.81715
1001.967	141.77339
1002.136	-1.58052
1002.304	76.40788
1002.473	-60.57691
1002.642	-18.43861
1002.81	65.86705
1002.979	80.62436
1003.147	51.11085
1003.316	51.11085
1003.484	-28.97412
1003.653	2.63424
1003.821	6.8491
1003.99	57.4348
1004.158	55.32679
1004.327	86.94927
1004.495	34.24801
1004.663	49.00291
1004.832	-18.43861
1005	15.2791
1005.168	-35.29512
1005.337	25.81715
1005.505	-60.57691
1005.673	42.67924
1005.842	2.63424
1006.01	65.86705
1006.178	-31.08114
1006.346	-35.29512
1006.514	-26.86706
1006.683	51.11085
1006.851	32.14026
1007.019	-31.08114
1007.187	-33.18815
1007.355	27.92483
1007.523	-5.79519
1007.691	-1.58052
1007.859	-1.58052
1008.027	-24.75999
1008.195	-56.36353
1008.363	-35.29512
1008.531	-16.33143
1008.699	-60.57691
1008.867	15.2791
1009.035	17.38667
1009.203	2.63424
1009.37	51.11085
1009.538	-18.43861
1009.706	2.63424
1009.874	-81.64228
1010.042	38.46358
1010.209	6.8491
1010.377	-1.58052
1010.545	11.06405
1010.713	-5.79519
1010.88	-12.11701
1011.048	-47.93647
1011.216	-22.65289
1011.383	44.78711
1011.551	6.8491
1011.718	51.11085
1011.886	15.2791
1012.054	116.46812
1012.221	-12.11701
1012.389	-52.15005
1012.556	-43.72279
1012.724	44.78711
1012.891	53.21881
1013.058	74.29967
1013.226	23.70949
1013.393	13.17157
1013.561	32.14026
1013.728	-1.58052
1013.895	15.2791
1014.063	49.00291
1014.23	15.2791
1014.397	6.8491
1014.565	-16.33143
1014.732	-33.18815
1014.899	32.14026
1015.066	2.63424
1015.233	13.17157
1015.401	-52.15005
1015.568	8.95656
1015.735	-39.50901
1015.902	40.5714
1016.069	49.00291
1016.236	11.06405
1016.403	65.86705
1016.57	2.63424
1016.737	2.63424
1016.904	11.06405
1017.071	-39.50901
1017.238	-16.33143
1017.405	32.14026
1017.572	-47.93647
1017.739	82.73264
1017.906	-58.47023
1018.073	-22.65289
1018.24	32.14026
1018.407	-14.22423
1018.573	-85.85504
1018.74	32.14026
1018.907	-16.33143
1019.074	-12.11701
1019.241	27.92483
1019.407	-50.04327
1019.574	34.24801
1019.741	-52.15005
1019.907	25.81715
1020.074	-45.82964
1020.241	17.38667
1020.407	4.74166
1020.574	17.38667
1020.74	27.92483
1020.907	-69.00336
1021.073	8.95656
1021.24	11.06405
1021.406	46.895
1021.573	-35.29512
1021.739	19.49425
1021.906	-28.97412
1022.072	49.00291
1022.239	49.00291
1022.405	-26.86706
1022.571	-28.97412
1022.738	23.70949
1022.904	0.52684
1023.07	11.06405
1023.237	15.2791
1023.403	8.95656
1023.569	36.35578
1023.735	2.63424
1023.902	-18.43861
1024.068	-43.72279
1024.234	-28.97412
1024.4	57.4348
1024.566	42.67924
1024.732	23.70949
1024.898	-18.43861
1025.065	-26.86706
1025.231	61.65088
1025.397	-14.22423
1025.563	-10.00976
1025.729	-16.33143
1025.895	40.5714
1026.061	53.21881
1026.227	-41.61591
1026.392	23.70949
1026.558	-45.82964
1026.724	-22.65289
1026.89	32.14026
1027.056	32.14026
1027.222	0.52684
1027.388	-50.04327
1027.553	27.92483
1027.719	-1.58052
1027.885	-20.54576
1028.051	-90.0677
1028.216	8.95656
1028.382	23.70949
1028.548	-54.2568
1028.713	-10.00976
1028.879	-1.58052
1029.045	40.5714
1029.21	15.2791
1029.376	-62.68356
1029.541	-50.04327
1029.707	23.70949
1029.873	2.63424
1030.038	-50.04327
1030.204	23.70949
1030.369	67.97517
1030.534	-50.04327
1030.7	-28.97412
1030.865	65.86705
1031.031	-1.58052
1031.196	40.5714
1031.361	11.06405
1031.527	-18.43861
1031.692	-5.79519
1031.857	-35.29512
1032.023	-1.58052
1032.188	-7.90249
1032.353	67.97517
1032.518	-26.86706
1032.684	-16.33143
1032.849	-66.89679
1033.014	-5.79519
1033.179	-7.90249
1033.344	-1.58052
1033.509	6.8491
1033.674	19.49425
1033.839	6.8491
1034.004	17.38667
1034.17	23.70949
1034.335	-41.61591
1034.5	-1.58052
1034.664	103.81665
1034.829	-56.36353
1034.994	51.11085
1035.159	6.8491
1035.324	-7.90249
1035.489	-45.82964
1035.654	32.14026
1035.819	-5.79519
1035.984	23.70949
1036.148	0.52684
1036.313	6.8491
1036.478	-43.72279
1036.643	19.49425
1036.807	-66.89679
1036.972	-14.22423
1037.137	-33.18815
1037.301	55.32679
1037.466	53.21881
1037.631	42.67924
1037.795	-14.22423
1037.96	42.67924
1038.124	-52.15005
1038.289	13.17157
1038.454	11.06405
1038.618	23.70949
1038.783	8.95656
1038.947	57.4348
1039.111	-3.68787
1039.276	-14.22423
1039.44	21.60186
1039.605	-16.33143
1039.769	-31.08114
1039.933	-35.29512
1040.098	-12.11701
1040.262	-35.29512
1040.426	-39.50901
1040.591	-1.58052
1040.755	-28.97412
1040.919	-56.36353
1041.083	-3.68787
1041.248	-83.74867
1041.412	27.92483
1041.576	-12.11701
1041.74	25.81715
1041.904	34.24801
1042.068	6.8491
1042.232	23.70949
1042.397	6.8491
1042.561	15.2791
1042.725	-90.0677
1042.889	38.46358
1043.053	30.03253
1043.217	8.95656
1043.381	23.70949
1043.544	-18.43861
1043.708	40.5714
1043.872	-18.43861
1044.036	13.17157
1044.2	6.8491
1044.364	-16.33143
1044.528	23.70949
1044.691	-18.43861
1044.855	-37.40208
1045.019	67.97517
1045.183	-60.57691
1045.346	141.77339
1045.51	23.70949
1045.674	6.8491
1045.837	19.49425
1046.001	-35.29512
1046.165	4.74166
1046.328	-1.58052
1046.492	51.11085
1046.655	23.70949
1046.819	-18.43861
1046.983	-18.43861
1047.146	49.00291
1047.31	30.03253
1047.473	-33.18815
1047.636	65.86705
1047.8	15.2791
1047.963	6.8491
1048.127	49.00291
1048.29	44.78711
