Data from Scatter_Coeff_Baseline_USB4F045381__50__0050.txt Node

Date: Thu Feb 13 19:32:34 EST 2025
User: mmckonesweet
Spectrometer: USB4F04538
Trigger mode: 4
Integration Time (sec): 2.400000E-3
Scans to average: 1
Electric dark correction enabled: true
Nonlinearity correction enabled: true
Boxcar width: 0
XAxis mode: Wavelengths
Number of Pixels in Spectrum: 3648
>>>>>Begin Spectral Data<<<<<
345.52	-23.00407
345.736	-23.00407
345.952	-23.00407
346.168	-73.56752
346.384	-20.89695
346.6	-16.68263
346.816	-14.57544
347.032	-39.86016
347.248	10.7128
347.464	8.60532
347.68	-39.86016
347.896	-1.93175
348.112	27.57355
348.328	36.00449
348.544	44.4358
348.76	6.49786
348.975	-20.89695
349.191	-18.7898
349.407	-18.7898
349.623	21.25059
349.839	-10.36097
350.055	-56.71465
350.27	12.82031
350.486	2.283
350.702	52.86748
350.918	40.22009
351.133	-4.03909
351.349	-12.46822
351.565	27.57355
351.781	-4.03909
351.996	-6.14641
352.212	0.17561
352.428	10.7128
352.644	-56.71465
352.859	6.49786
353.075	27.57355
353.291	-39.86016
353.506	-25.11117
353.722	-18.7898
353.938	36.00449
354.153	6.49786
354.369	50.75953
354.584	80.27299
354.8	48.65159
355.016	52.86748
355.231	19.14299
355.447	48.65159
355.662	-20.89695
355.878	17.0354
356.093	6.49786
356.309	82.38126
356.524	-20.89695
356.74	21.25059
356.955	-56.71465
357.171	44.4358
357.386	-44.07393
357.602	19.14299
357.817	-4.03909
358.033	-31.43231
358.248	-10.36097
358.464	-6.14641
358.679	19.14299
358.895	25.46587
359.11	-18.7898
359.325	21.25059
359.541	10.7128
359.756	71.84011
359.972	14.92785
360.187	-6.14641
360.402	14.92785
360.618	-8.2537
360.833	10.7128
361.048	25.46587
361.264	33.89672
361.479	21.25059
361.694	12.82031
361.909	-46.18078
362.125	40.22009
362.34	-6.14641
362.555	2.283
362.77	57.08346
362.986	-60.92802
363.201	-1.93175
363.416	52.86748
363.631	-12.46822
363.847	0.17561
364.062	-39.86016
364.277	-12.46822
364.492	-81.99334
364.707	29.68125
364.922	-12.46822
365.138	14.92785
365.353	44.4358
365.568	19.14299
365.783	-69.35446
365.998	31.78897
366.213	59.19149
366.428	-31.43231
366.643	-12.46822
366.858	14.92785
367.073	69.73195
367.288	-46.18078
367.503	10.7128
367.718	10.7128
367.933	-52.50118
368.148	23.35822
368.363	-31.43231
368.578	52.86748
368.793	36.00449
369.008	4.39042
369.223	-50.3944
369.438	-23.00407
369.653	-1.93175
369.868	21.25059
370.083	25.46587
370.298	52.86748
370.513	0.17561
370.728	2.283
370.943	36.00449
371.157	21.25059
371.372	-65.14129
371.587	-52.50118
371.802	-1.93175
372.017	-16.68263
372.232	-12.46822
372.446	-31.43231
372.661	10.7128
372.876	63.4076
373.091	86.59788
373.306	-27.21824
373.52	29.68125
373.735	42.32793
373.95	27.57355
374.165	23.35822
374.379	-25.11117
374.594	-12.46822
374.809	12.82031
375.023	-18.7898
375.238	10.7128
375.453	-46.18078
375.667	-69.35446
375.882	-41.96706
376.097	-25.11117
376.311	-6.14641
376.526	-60.92802
376.741	-44.07393
376.955	78.16474
377.17	2.283
377.384	2.283
377.599	10.7128
377.813	10.7128
378.028	67.62381
378.242	36.00449
378.457	40.22009
378.672	-31.43231
378.886	92.92297
379.101	42.32793
379.315	-18.7898
379.53	10.7128
379.744	61.29953
379.958	63.4076
380.173	14.92785
380.387	54.97546
380.602	-4.03909
380.816	-27.21824
381.031	-23.00407
381.245	130.87769
381.459	29.68125
381.674	-14.57544
381.888	52.86748
382.103	17.0354
382.317	40.22009
382.531	-35.64629
382.746	31.78897
382.96	36.00449
383.174	-69.35446
383.388	17.0354
383.603	-44.07393
383.817	65.5157
384.031	12.82031
384.246	31.78897
384.46	6.49786
384.674	-14.57544
384.888	10.7128
385.103	19.14299
385.317	-46.18078
385.531	-12.46822
385.745	31.78897
385.959	52.86748
386.174	-31.43231
386.388	-6.14641
386.602	-27.21824
386.816	44.4358
387.03	2.283
387.244	14.92785
387.458	-27.21824
387.672	46.54368
387.887	40.22009
388.101	52.86748
388.315	36.00449
388.529	65.5157
388.743	-52.50118
388.957	78.16474
389.171	-27.21824
389.385	2.283
389.599	6.49786
389.813	-39.86016
390.027	-65.14129
390.241	-16.68263
390.455	36.00449
390.669	2.283
390.883	-14.57544
391.097	14.92785
391.311	-23.00407
391.525	-27.21824
391.738	-4.03909
391.952	-14.57544
392.166	0.17561
392.38	29.68125
392.594	-14.57544
392.808	42.32793
393.022	19.14299
393.236	25.46587
393.449	31.78897
393.663	-1.93175
393.877	27.57355
394.091	-111.48045
394.305	78.16474
394.518	61.29953
394.732	48.65159
394.946	44.4358
395.16	38.11228
395.373	48.65159
395.587	4.39042
395.801	2.283
396.015	-39.86016
396.228	65.5157
396.442	8.60532
396.656	27.57355
396.869	-23.00407
397.083	-37.75323
397.297	8.60532
397.51	2.283
397.724	-18.7898
397.938	31.78897
398.151	61.29953
398.365	38.11228
398.578	-33.53931
398.792	-77.78048
399.005	27.57355
399.219	19.14299
399.433	23.35822
399.646	-12.46822
399.86	33.89672
400.073	42.32793
400.287	36.00449
400.5	27.57355
400.714	-20.89695
400.927	46.54368
401.141	-31.43231
401.354	-23.00407
401.567	54.97546
401.781	23.35822
401.994	-27.21824
402.208	-88.31244
402.421	-18.7898
402.635	2.283
402.848	103.46523
403.061	63.4076
403.275	-65.14129
403.488	-56.71465
403.701	-18.7898
403.915	-56.71465
404.128	-4.03909
404.341	12.82031
404.555	-39.86016
404.768	0.17561
404.981	-56.71465
405.195	-14.57544
405.408	8.60532
405.621	36.00449
405.834	-12.46822
406.048	71.84011
406.261	-81.99334
406.474	-6.14641
406.687	-6.14641
406.9	12.82031
407.114	-29.32529
407.327	-71.461
407.54	-29.32529
407.753	-14.57544
407.966	-48.28761
408.179	21.25059
408.392	-41.96706
408.605	-14.57544
408.819	6.49786
409.032	82.38126
409.245	-6.14641
409.458	25.46587
409.671	-44.07393
409.884	48.65159
410.097	52.86748
410.31	10.7128
410.523	2.283
410.736	4.39042
410.949	12.82031
411.162	23.35822
411.375	44.4358
411.588	-6.14641
411.801	19.14299
412.014	-27.21824
412.227	19.14299
412.44	46.54368
412.653	36.00449
412.865	0.17561
413.078	6.49786
413.291	59.19149
413.504	36.00449
413.717	-6.14641
413.93	6.49786
414.143	17.0354
414.356	-27.21824
414.568	-1.93175
414.781	46.54368
414.994	-10.36097
415.207	-44.07393
415.42	-1.93175
415.632	-4.03909
415.845	-44.07393
416.058	38.11228
416.271	-10.36097
416.483	-41.96706
416.696	-58.82135
416.909	31.78897
417.121	29.68125
417.334	6.49786
417.547	-8.2537
417.759	4.39042
417.972	-6.14641
418.185	52.86748
418.397	23.35822
418.61	71.84011
418.823	29.68125
419.035	33.89672
419.248	61.29953
419.46	2.283
419.673	-4.03909
419.885	10.7128
420.098	-1.93175
420.311	31.78897
420.523	10.7128
420.736	4.39042
420.948	0.17561
421.161	-23.00407
421.373	-14.57544
421.586	6.49786
421.798	23.35822
422.01	-14.57544
422.223	31.78897
422.435	52.86748
422.648	6.49786
422.86	33.89672
423.073	27.57355
423.285	-31.43231
423.497	23.35822
423.71	-16.68263
423.922	82.38126
424.134	29.68125
424.347	76.05651
424.559	14.92785
424.771	-10.36097
424.984	-14.57544
425.196	-4.03909
425.408	10.7128
425.621	54.97546
425.833	-37.75323
426.045	21.25059
426.257	0.17561
426.47	6.49786
426.682	38.11228
426.894	19.14299
427.106	82.38126
427.318	57.08346
427.531	-88.31244
427.743	10.7128
427.955	19.14299
428.167	-35.64629
428.379	12.82031
428.591	-39.86016
428.804	-14.57544
429.016	80.27299
429.228	54.97546
429.44	19.14299
429.652	78.16474
429.864	-71.461
430.076	116.11668
430.288	14.92785
430.5	-20.89695
430.712	44.4358
430.924	25.46587
431.136	-18.7898
431.348	-10.36097
431.56	2.283
431.772	-14.57544
431.984	78.16474
432.196	147.7487
432.408	12.82031
432.62	-1.93175
432.832	-29.32529
433.044	80.27299
433.256	-77.78048
433.468	6.49786
433.679	33.89672
433.891	-23.00407
434.103	36.00449
434.315	46.54368
434.527	80.27299
434.739	-33.53931
434.95	54.97546
435.162	40.22009
435.374	69.73195
435.586	65.5157
435.798	40.22009
436.009	86.59788
436.221	82.38126
436.433	31.78897
436.645	86.59788
436.856	82.38126
437.068	48.65159
437.28	54.97546
437.491	12.82031
437.703	99.24826
437.915	61.29953
438.126	78.16474
438.338	40.22009
438.55	52.86748
438.761	6.49786
438.973	82.38126
439.184	19.14299
439.396	69.73195
439.608	95.03138
439.819	10.7128
440.031	54.97546
440.242	124.55141
440.454	67.62381
440.665	73.9483
440.877	25.46587
441.088	-6.14641
441.3	2.283
441.511	8.60532
441.723	103.46523
441.934	38.11228
442.146	130.87769
442.357	126.66015
442.569	128.76891
442.78	135.09531
442.991	61.29953
443.203	105.57375
443.414	63.4076
443.626	86.59788
443.837	95.03138
444.048	99.24826
444.26	57.08346
444.471	143.53082
444.682	90.81458
444.894	86.59788
445.105	126.66015
445.316	67.62381
445.528	52.86748
445.739	44.4358
445.95	73.9483
446.161	86.59788
446.373	111.89944
446.584	114.00805
446.795	61.29953
447.006	21.25059
447.217	63.4076
447.429	103.46523
447.64	69.73195
447.851	95.03138
448.062	128.76891
448.273	44.4358
448.484	97.13981
448.695	97.13981
448.907	103.46523
449.118	114.00805
449.329	63.4076
449.54	116.11668
449.751	84.48956
449.962	128.76891
450.173	105.57375
450.384	86.59788
450.595	162.51195
450.806	114.00805
451.017	128.76891
451.228	147.7487
451.439	73.9483
451.65	90.81458
451.861	164.62107
452.072	80.27299
452.283	204.69824
452.494	130.87769
452.705	92.92297
452.915	170.94855
453.126	122.44269
453.337	158.29377
453.548	67.62381
453.759	137.20416
453.97	147.7487
454.181	114.00805
454.391	156.18471
454.602	156.18471
454.813	189.93211
455.024	116.11668
455.235	238.45306
455.445	124.55141
455.656	122.44269
455.867	249.00247
456.078	141.42191
456.288	141.42191
456.499	103.46523
456.71	196.26033
456.921	204.69824
457.131	183.60407
457.342	170.94855
457.553	160.40285
457.763	135.09531
457.974	221.57502
458.184	141.42191
458.395	274.323
458.606	238.45306
458.816	286.98428
459.027	286.98428
459.237	208.91732
459.448	265.88252
459.659	162.51195
459.869	164.62107
460.08	168.83937
460.29	253.22237
460.501	238.45306
460.711	320.75093
460.922	278.54336
461.132	341.85741
461.343	282.76378
461.553	259.55236
461.764	286.98428
461.974	350.30049
462.184	301.75662
462.395	314.41933
462.605	396.74233
462.816	280.65356
463.026	375.63139
463.236	327.08269
463.447	320.75093
463.657	327.08269
463.867	390.40887
464.078	460.08485
464.288	373.52039
464.498	386.18665
464.709	434.74613
464.919	415.74358
465.129	453.74996
465.339	474.86679
465.55	438.9691
465.76	500.20897
465.97	428.41181
466.18	415.74358
466.391	610.0485
466.601	527.66536
466.811	531.88963
467.021	557.23644
467.231	650.19098
467.441	567.79819
467.651	696.67715
467.862	593.14775
468.072	715.6958
468.282	745.2821
468.492	681.88549
468.702	747.39549
468.912	874.21642
469.122	728.37539
469.332	774.87045
469.542	880.55831
469.752	918.61119
469.962	842.5081
470.172	848.84961
470.382	914.38297
470.592	927.06773
470.802	994.72417
471.012	1003.18171
471.222	1252.71607
471.432	1199.84382
471.642	1159.66232
471.852	1155.43277
472.062	1210.41811
472.272	1246.3713
472.482	1267.52062
472.691	1413.45615
472.901	1256.94593
473.111	1375.3854
473.321	1451.52707
473.531	1432.4916
473.741	1491.71303
473.95	1612.26909
474.16	1548.81904
474.37	1798.37617
474.58	1618.61401
474.79	1830.09616
474.999	1760.31093
475.209	1796.26147
475.419	1734.93341
475.628	1874.50238
475.838	1921.02077
476.048	2024.6198
476.258	2092.26775
476.467	2286.71078
476.677	2178.93046
476.886	2424.04226
477.096	2449.39101
477.306	2390.24154
477.515	2343.76127
477.725	2386.01627
477.935	2326.85816
478.144	2631.00946
478.354	2457.84025
478.563	2842.07781
478.773	2774.55044
478.982	2791.4336
479.192	2757.66642
479.401	2854.7376
479.611	2907.48124
479.82	3088.8486
480.03	3187.91926
480.239	3272.20624
480.449	3040.35442
480.658	3409.11448
480.868	3316.44611
481.077	3493.32872
481.287	3358.57228
481.496	3524.9016
481.705	3430.17072
481.915	3554.3659
482.124	3537.5296
482.333	3735.28034
482.543	3720.56002
482.752	3699.52934
482.961	3939.16291
483.171	3974.87552
483.38	4039.98333
483.589	4102.97202
483.799	4037.88339
484.008	4186.92769
484.217	4134.45933
484.426	4287.62981
484.636	4218.40238
484.845	4470.02585
485.054	4407.14927
485.263	4390.37886
485.472	4652.25547
485.682	4650.16183
485.891	4549.64107
486.1	4599.90788
486.309	4892.87274
486.518	4788.29341
486.727	4825.94853
486.936	5030.82974
487.146	5009.93361
487.355	5068.43694
487.564	5068.43694
487.773	5093.50424
487.982	5156.15787
488.191	5464.94157
488.4	5354.4226
488.609	5083.05994
488.818	5331.47644
489.027	5546.22467
489.236	5521.2183
489.445	5762.80431
489.654	5569.1442
489.863	5706.60143
490.072	5575.39448
490.281	5818.98999
490.49	5860.59791
490.698	5995.7585
490.907	5877.23844
491.116	6145.35866
491.325	6101.73788
491.534	6215.96083
491.743	6093.42799
491.952	6164.05011
492.16	6024.85698
492.369	6487.73399
492.578	6388.19945
492.787	6305.21299
492.996	6193.12192
493.204	6375.75386
493.413	6605.86183
493.622	6670.07529
493.831	6607.93357
494.039	6725.98514
494.248	6653.50619
494.457	6827.40852
494.665	6754.96885
494.874	6997.01532
495.083	6992.88037
495.291	7007.35228
495.5	6939.11791
495.709	6953.59392
495.917	7050.76139
496.126	7123.08796
496.335	7261.46564
496.543	7459.56608
496.752	7224.29931
496.96	7496.68761
497.169	7319.26575
497.377	7542.04888
497.586	7517.30766
497.794	7768.70048
498.003	7577.09366
498.211	7752.22535
498.42	7816.05904
498.628	7735.74887
498.837	7647.16471
499.045	7883.98905
499.254	7814.0002
499.462	7729.56985
499.671	7953.95402
499.879	8167.81839
500.087	8136.98601
500.296	8085.5887
500.504	7925.14779
500.713	8344.50467
500.921	8307.53585
501.129	8040.34866
501.338	7986.8705
501.546	8570.28953
501.754	8455.37346
501.962	8406.10539
502.171	8340.39734
502.379	8689.24754
502.587	8486.16039
502.795	8697.44923
503.004	8578.49555
503.212	8808.14339
503.42	8765.102
503.628	8845.02965
503.837	8592.85536
504.045	8685.14658
504.253	8736.40327
504.461	9012.99372
504.669	8701.54997
504.877	9031.42157
505.085	9203.34727
505.294	8853.2258
505.502	9060.08431
505.71	8890.10493
505.918	9039.61127
506.126	9101.02517
506.334	9078.50855
506.542	9276.99293
506.75	9309.71738
506.958	9366.97495
507.166	8955.65355
507.374	9234.03561
507.582	9305.62705
507.79	9369.01963
507.998	9250.40117
508.206	9685.74988
508.414	9557.06035
508.622	9718.42314
508.83	9254.4924
509.037	9689.83425
509.245	9409.90968
509.453	9783.75794
509.661	9867.44563
509.869	9953.14867
510.077	9749.05076
510.285	9914.38145
510.492	9536.62771
510.7	9732.71645
510.908	9485.53916
511.116	9708.21316
511.324	9742.92551
511.531	10075.53725
511.739	9912.34092
511.947	10085.73399
512.155	10214.1829
512.362	10316.08777
512.57	10014.34941
512.778	10071.45846
512.985	10110.20471
513.193	10271.25378
513.401	10185.64345
513.608	10340.53994
513.816	10222.33654
514.024	10132.63443
514.231	10295.70949
514.439	10556.4525
514.646	10367.02764
514.854	10558.48873
515.061	10281.4439
515.269	10825.12844
515.477	10513.68883
515.684	10857.68109
515.892	10405.73643
516.099	10493.32321
516.307	10550.34374
516.514	10892.26504
516.722	10452.58814
516.929	10725.41723
517.136	10709.13513
517.344	10808.85099
517.551	10713.20573
517.759	10963.45689
517.966	11140.36053
518.173	11154.59059
518.381	11012.2662
518.588	11209.47313
518.796	11097.6672
519.003	11292.79879
519.21	10993.96346
519.418	11315.15153
519.625	11162.72183
519.832	11579.23014
520.039	11286.70238
520.247	11374.07565
520.454	11317.18354
520.661	11510.1791
520.868	11325.31146
521.076	11640.14863
521.283	11443.1485
521.49	11731.51115
521.697	11599.53722
521.904	11952.73896
522.112	11546.73688
522.319	11644.20958
522.526	11627.96559
522.733	11889.83109
522.94	11897.94868
523.147	11680.75643
523.354	11867.50704
523.561	12072.44552
523.768	11891.8605
523.975	11979.11736
524.183	12048.10064
524.39	12135.33134
524.597	12287.44486
524.804	12502.36469
525.011	12289.47276
525.218	12427.35409
525.425	12465.87417
525.632	12540.88021
525.838	12137.35979
526.045	12147.50194
526.252	12386.80404
526.459	12613.85073
526.666	12623.9849
526.873	12897.55212
527.08	12506.41907
527.287	12824.61091
527.494	12557.09658
527.701	12852.97777
527.907	12780.03222
528.114	13108.23343
528.321	12929.96822
528.528	13177.09861
528.735	13337.08893
528.941	12838.79448
529.148	12834.74206
529.355	12946.17576
529.562	13262.16011
529.768	13140.64124
529.975	12875.26527
530.182	13116.3355
530.388	13085.95236
530.595	13142.66669
530.802	13098.10574
531.008	13235.83239
531.215	13296.58758
531.422	13217.60506
531.628	13422.13643
531.835	13442.3848
532.042	13316.83846
532.248	13790.60103
532.455	13414.03697
532.661	13699.50747
532.868	13616.5055
533.074	13932.29032
533.281	13786.55256
533.487	13887.76087
533.694	13831.0851
533.9	14057.77575
534.107	13715.70234
534.313	14025.39332
534.52	13782.50407
534.726	14086.10989
534.933	13456.55844
535.139	14047.65631
535.345	14065.87127
535.552	14096.22912
535.758	14027.41724
535.965	14308.72085
536.171	13999.08214
536.377	14268.24789
536.584	14266.22422
536.79	14296.57904
536.996	14660.80986
537.203	14527.26363
537.409	14345.14592
537.615	14215.63193
537.821	14227.77419
538.028	14511.07585
538.234	14636.52908
538.44	14737.69807
538.646	14553.56859
538.853	14834.81832
539.059	14511.07585
539.265	14741.74478
539.471	14596.06079
539.677	15008.82206
539.883	15002.75221
540.09	14602.13106
540.296	14905.63422
540.502	14978.4728
540.708	14782.21173
540.914	15283.98726
541.12	14954.19333
541.326	15304.22005
541.532	15065.47385
541.738	15164.61417
541.944	15049.28764
542.15	15389.19805
542.356	15401.33782
542.562	15559.1565
542.768	15413.47761
542.974	15364.91856
543.18	15658.30108
543.386	15678.53491
543.592	15571.29655
543.798	15755.42432
544.004	15536.89979
544.21	15783.75236
544.415	15615.81031
544.621	15969.91368
544.827	15680.5583
545.033	15771.61174
545.239	15719.00284
545.445	16065.02212
545.651	16054.90405
545.856	16046.80962
546.062	15935.51351
546.268	16089.30565
546.474	15820.17443
546.679	15834.33867
546.885	15486.31668
547.091	15876.83173
547.297	15719.00284
547.502	15943.60763
547.708	15980.03145
547.914	16103.47114
548.119	16101.44749
548.325	16269.41571
548.531	15917.30181
548.736	16303.82031
548.942	16125.73135
549.147	16524.42772
549.353	16544.66814
549.559	16617.53549
549.764	16364.53562
549.97	16273.46328
550.175	16552.76437
550.381	16609.43897
550.586	16364.53562
550.792	16840.20423
550.997	16354.41628
551.203	16532.52386
551.408	16858.42388
551.614	16791.61947
551.819	16840.20423
552.025	16830.08228
552.23	16694.45418
552.435	16807.81423
552.641	17056.82928
552.846	17332.21147
553.052	17115.54604
553.257	17401.06555
553.462	17324.11122
553.668	17301.83579
553.873	17340.31177
554.078	17324.11122
554.283	17172.24033
554.489	17656.26229
554.694	17569.16562
554.899	17158.06655
555.105	17186.41426
555.31	17275.51073
555.515	17506.37871
555.72	17421.31743
555.925	17623.85352
556.131	17660.31344
556.336	17016.3363
556.541	17715.00533
556.746	17496.25207
556.951	17336.26161
557.156	17251.21113
557.361	17646.13445
557.567	17652.21114
557.772	17950.00605
557.977	17729.18511
558.182	18053.34017
558.387	17686.64627
558.592	17968.24081
558.797	17727.15942
559.002	18215.45178
559.207	18026.99922
559.412	17974.31913
559.617	17923.66744
559.822	18051.31392
560.027	17820.34477
560.232	17852.75876
560.437	17976.34524
560.642	18566.09962
560.847	18276.24969
561.051	18509.33964
561.256	18162.76295
561.461	18468.79865
561.666	18241.79714
561.871	18752.61817
562.076	18118.18203
562.281	18436.36696
562.485	18300.56979
562.69	18300.56979
562.895	18071.57657
563.1	18037.13029
563.305	18016.86825
563.509	18286.383
563.714	18154.6572
563.919	18699.90304
564.123	18330.97067
564.328	18432.31306
564.533	18549.88217
564.737	18276.24969
564.942	18418.12456
565.147	18787.08719
565.351	18819.52968
565.556	18718.15028
565.761	18754.64572
565.965	18787.08719
566.17	18827.64046
566.374	18610.69887
566.579	19026.3746
566.784	18856.02869
566.988	18922.94691
567.193	19064.90917
567.397	19012.17802
567.602	18977.70144
567.806	18620.83533
568.011	18851.97318
568.215	19068.96553
568.42	18929.03061
568.624	19054.76835
568.828	19115.61479
569.033	19119.67135
569.237	19261.66124
569.442	19123.72792
569.646	19048.68391
569.85	19357.00861
570.055	19480.77095
570.259	19288.033
570.463	19310.34812
570.668	19188.63536
570.872	18987.84149
571.076	19330.63502
571.281	19531.49768
571.485	19397.58472
571.689	19726.31259
571.893	19669.4876
572.098	19622.81238
572.302	19383.38289
572.506	19432.07573
572.71	19279.91854
572.914	19639.04698
573.119	19436.13357
573.323	19428.0179
573.527	19665.42879
573.731	19949.58548
573.935	19606.57804
574.139	19888.68784
574.343	19537.58507
574.547	19858.24043
574.751	19772.99272
574.955	19919.13619
575.159	19752.69674
575.364	19858.24043
575.568	19653.25249
575.772	20097.78557
575.976	20000.33641
576.18	19852.15106
576.383	20018.60739
576.587	20302.86648
576.791	20000.33641
576.995	20254.1305
577.199	20304.8972
577.403	20219.61064
577.607	20418.62413
577.811	20465.33722
578.015	20187.12248
578.219	20394.25297
578.422	20063.27122
578.626	20022.66766
578.83	20203.36642
579.034	20195.24442
579.238	20079.51311
579.442	20347.54326
579.645	20179.0006
579.849	20621.74061
580.053	20735.50406
580.257	20670.49478
580.46	21064.67857
580.664	20562.83253
580.868	20735.50406
581.071	20668.4633
581.275	20447.05792
581.479	20731.44086
581.682	20193.21393
581.886	20863.50351
582.09	20865.53538
582.293	20715.1882
582.497	20961.0379
582.7	20538.4578
582.904	21188.65489
583.107	21052.48499
583.311	20786.29552
583.515	20954.94172
583.718	20956.97378
583.922	21176.45983
584.125	21359.40107
584.329	21093.13081
584.532	21188.65489
584.735	21357.36821
584.939	21062.64629
585.142	21306.54802
585.346	21206.94776
585.549	21208.98032
585.753	21241.50185
585.956	21365.49967
586.159	21432.58669
586.363	21540.34158
586.566	21591.17322
586.769	21703.01149
586.973	21633.87371
587.176	21448.85086
587.379	21648.10759
587.582	21867.74022
587.786	21532.20875
587.989	22016.22107
588.192	21532.20875
588.395	21721.31343
588.599	21818.92906
588.802	21806.72662
589.005	21469.18144
589.208	21918.58754
589.411	21428.52068
589.615	21772.15379
589.818	21617.60665
590.021	21794.52432
590.224	21855.53723
590.427	22317.31231
590.63	22079.2807
590.833	22347.83284
591.036	21969.43724
591.239	22038.59665
591.442	21963.33515
591.645	22038.59665
591.848	21955.19908
592.051	21963.33515
592.254	21806.72662
592.457	22703.96556
592.66	22042.66498
592.863	22673.43564
593.066	22799.63105
593.269	22569.63983
593.472	22419.0506
593.675	22555.39406
593.878	22288.82723
594.081	22569.63983
594.284	22384.45856
594.486	22567.60471
594.689	22482.13289
594.892	22341.72867
595.095	22651.04754
595.298	22313.24297
595.5	22496.37775
595.703	22526.90306
595.906	22679.54156
596.109	23247.52637
596.311	22952.30444
596.514	22535.04327
596.717	22712.10701
596.92	22840.34208
597.122	22634.76554
597.325	22626.62463
597.528	22728.39006
597.73	22868.84061
597.933	22905.48257
598.136	23037.80985
598.338	22895.30414
598.541	22944.16138
598.743	23096.85273
598.946	23172.18732
599.148	23243.45387
599.351	23019.48677
599.554	23282.14309
599.756	23328.97895
599.959	23589.66104
600.161	22968.59073
600.363	23504.11913
600.566	23359.52498
600.768	23434.87489
600.971	23557.07301
601.173	23400.25413
601.376	23748.53878
601.578	23550.96284
601.78	23893.17391
601.983	23522.44908
602.185	23388.03525
602.388	23522.44908
602.59	23815.76173
602.792	23656.87632
602.995	24111.17247
603.197	23650.7657
603.399	23717.98395
603.601	23701.68832
603.804	23628.36034
604.006	23687.4298
604.208	23414.50963
604.41	23324.9062
604.613	23770.94607
604.815	23958.36635
605.017	24121.3601
605.219	23679.28214
605.421	23607.99215
605.623	24182.48734
605.826	24229.35321
606.028	23750.57579
606.23	24139.69801
606.432	24225.27786
606.634	24235.46626
606.836	24005.22521
607.038	24424.98257
607.24	24282.33375
607.442	24247.69243
607.644	23846.31867
607.846	24200.82599
608.048	24290.48476
608.25	24247.69243
608.452	24225.27786
608.654	24178.41211
608.856	23832.05868
609.058	23717.98395
609.26	23673.17142
609.462	23876.87626
609.664	24194.71308
609.866	23685.39288
610.067	23667.06073
610.269	24068.38517
610.471	23925.76976
610.673	24145.8107
610.875	24113.20999
611.077	23958.36635
611.278	23540.77928
611.48	23834.09581
611.682	23642.61826
611.884	24107.09743
612.085	24263.99413
612.287	23956.32904
612.489	23907.4345
612.69	24080.60999
612.892	23801.50205
613.094	24400.52757
613.295	23693.54057
613.497	23876.87626
613.699	24345.50521
613.9	24685.85871
614.102	24541.14887
614.304	24514.65407
614.505	23997.07573
614.707	24290.48476
614.908	24192.67545
615.11	24125.43517
615.311	24068.38517
615.513	23935.95612
615.714	24259.91869
615.916	24610.44497
616.117	24235.46626
616.319	24657.32339
616.52	24172.29929
616.722	24208.97657
616.923	24594.13975
617.124	24777.58265
617.326	23952.25443
617.527	24182.48734
617.729	24367.9215
617.93	24048.01069
618.131	24015.41212
618.333	24098.9474
618.534	24402.56548
618.735	23972.62758
618.937	23978.73958
619.138	24204.90127
619.339	24284.3715
619.54	24052.08557
619.742	24429.05844
619.943	24021.5243
620.144	24270.10731
620.345	24530.95851
620.546	24180.44972
620.748	24687.89697
620.949	24530.95851
621.15	24624.71218
621.351	24025.5991
621.552	24359.77008
621.753	24251.76784
621.954	24557.45357
622.155	23925.76976
622.356	24378.11082
622.558	24204.90127
622.759	24663.43806
622.96	24211.01422
623.161	24506.50191
623.362	24378.11082
623.563	24889.69628
623.764	24722.5477
623.965	24810.19678
624.166	24594.13975
624.366	24316.97585
624.567	24581.91093
624.768	24532.99658
624.969	24306.78692
625.17	24467.77971
625.371	24543.18695
625.572	24508.53995
625.773	24459.62779
625.973	24638.9795
626.174	24386.26233
626.375	24685.85871
626.576	24673.62923
626.777	24502.42585
626.977	23734.27978
627.178	24590.06347
627.379	24569.68221
627.58	24765.35251
627.78	24604.3305
627.981	24408.6792
628.182	24583.94906
628.382	24730.70091
628.583	24504.46388
628.784	24781.65938
628.984	24755.16079
629.185	24814.27359
629.386	24149.88584
629.586	24600.25419
629.787	24618.59765
629.987	24954.9293
630.188	24618.59765
630.388	24777.58265
630.589	24634.90311
630.79	24903.9658
630.99	24812.23518
631.191	24800.0048
631.391	24610.44497
631.591	24700.12656
631.792	25001.817
631.992	24698.08829
632.193	24838.73465
632.393	24598.21604
632.594	24569.68221
632.794	24498.34979
632.994	24712.35623
633.195	24526.88239
633.395	24663.43806
633.595	24901.92729
633.796	24702.16483
633.996	25230.15675
634.196	24924.35103
634.397	25181.22446
634.597	24573.75844
634.797	24999.77838
634.997	24795.92802
635.198	25069.09276
635.398	24810.19678
635.598	24975.31511
635.798	24948.81361
635.998	24950.85217
636.199	24826.50408
636.399	25144.52608
636.599	25368.80495
636.799	24830.58092
636.999	25156.75879
637.199	25580.87379
637.399	25499.30624
637.599	25519.69782
637.799	25156.75879
637.999	25201.61276
638.199	25538.05042
638.399	25454.44547
638.599	25360.6489
638.799	25780.72762
638.999	25291.32386
639.199	25321.90813
639.399	25519.69782
639.599	25342.29792
639.799	25148.60364
639.999	25466.68013
640.199	25144.52608
640.399	25421.82008
640.599	24376.07295
640.799	25833.75315
640.998	25083.3637
641.198	25529.89369
641.398	24952.89073
641.598	25493.1888
641.798	25279.09028
641.997	25336.18096
642.197	25285.20706
642.397	25721.58526
642.597	25607.38393
642.796	26058.10576
642.996	25429.97638
643.196	25719.5459
643.395	25364.72692
643.595	25334.14198
643.795	25688.95569
643.994	25560.4816
644.194	25448.32817
644.394	25444.24998
644.593	25593.1092
644.793	25425.89822
644.992	25690.99502
645.192	25797.04303
645.392	25741.979
645.591	25752.17593
645.791	25868.42438
645.99	25962.24332
646.19	26015.27312
646.389	25966.32249
646.589	25566.59923
646.788	25548.24638
646.987	25629.81585
647.187	25760.33352
647.386	25338.21994
647.586	25797.04303
647.785	25884.74044
647.984	26021.39202
648.184	25990.79768
648.383	25690.99502
648.582	25886.77996
648.782	25792.96417
648.981	24997.73976
649.18	25458.52368
649.38	25501.34539
649.579	25556.40319
649.778	25513.58033
649.977	25668.56245
650.177	25664.48383
650.376	25556.40319
650.575	25340.25893
650.774	26209.04598
650.973	26368.15522
651.173	26064.22477
651.372	25741.979
651.571	25744.01838
651.77	25884.74044
651.969	26129.49522
652.168	25631.85513
652.367	25772.56996
652.566	25699.15237
652.765	25817.43747
652.964	25674.6804
653.163	25676.71972
653.362	25678.75905
653.561	26141.73363
653.76	26058.10576
653.959	25874.54289
654.158	25974.48086
654.357	25762.37292
654.556	25652.24801
654.755	26162.13112
654.954	26096.85977
655.153	26072.38348
655.352	26268.20079
655.551	26102.97889
655.749	25919.41246
655.948	25984.67886
656.147	26127.45549
656.346	26547.67498
656.545	26239.64312
656.743	26333.4767
656.942	26521.15424
657.141	26584.39644
657.34	26364.07537
657.538	26490.55372
657.737	25945.92671
657.936	26468.11356
658.135	26368.15522
658.333	26311.03792
658.532	26172.32992
658.731	26335.5166
658.929	26056.06609
659.128	26054.02643
659.326	26247.80242
659.525	26400.79425
659.724	26610.9178
659.922	26408.95407
660.121	26023.43166
660.319	25780.72762
660.518	26098.89947
660.716	25850.06896
660.915	26215.16538
661.113	26490.55372
661.312	26223.3246
661.51	26415.07396
661.709	26245.76259
661.907	26415.07396
662.105	26443.63361
662.304	26553.79519
662.502	26335.5166
662.701	26017.31275
662.899	26198.84702
663.097	26215.16538
663.296	25835.79262
663.494	26329.39691
663.692	25960.20374
663.891	26015.27312
664.089	26559.91541
664.287	26421.19386
664.485	26239.64312
664.684	26372.23507
664.882	26235.56348
665.08	26404.87416
665.278	26580.31625
665.476	26702.72452
665.675	26321.23734
665.873	26488.51369
666.071	26357.9556
666.269	26427.31377
666.467	26062.1851
666.665	26555.83526
666.863	26011.19386
667.061	26194.76745
667.259	26437.51366
667.457	26443.63361
667.655	26386.51462
667.853	26196.80723
668.051	25703.23106
668.249	26029.55058
668.447	25937.76844
668.645	26100.93918
668.843	26025.47129
669.041	25960.20374
669.239	25852.10844
669.437	26149.8926
669.635	25935.72888
669.833	26151.93235
670.031	26084.62159
670.229	25919.41246
670.426	25797.04303
670.624	25894.93804
670.822	26107.0583
671.02	26455.87356
671.218	26272.28049
671.415	26531.35449
671.613	26215.16538
671.811	25937.76844
672.009	26139.69389
672.206	26286.55947
672.404	25905.13568
672.602	26113.17744
672.799	25988.75807
672.997	26023.43166
673.195	26211.08578
673.392	26186.60832
673.59	25760.33352
673.788	26035.66952
673.985	25913.29383
674.183	26045.86778
674.38	26143.77337
674.578	25976.52045
674.775	25582.91302
674.973	25405.50758
675.17	25670.60177
675.368	25474.83661
675.565	25660.40522
675.763	25858.22691
675.96	25803.16134
676.158	25888.81947
676.355	25487.07139
676.553	25972.44126
676.75	25346.3759
676.947	25896.97756
677.145	25937.76844
677.342	25611.46244
677.539	25509.50201
677.737	26131.53495
677.934	25642.05154
678.131	25901.05662
678.329	25138.40975
678.526	25589.03072
678.723	25529.89369
678.92	25723.62463
679.118	25427.9373
679.315	25762.37292
679.512	25805.20078
679.709	25821.51638
679.906	25497.26709
680.104	25795.0036
680.301	26035.66952
680.498	25654.28731
680.695	25568.63845
680.892	25478.91486
681.089	25527.85451
681.286	25652.24801
681.483	25360.6489
681.68	25438.13271
681.877	25260.74006
682.075	25364.72692
682.272	25303.55751
682.469	25629.81585
682.665	25425.89822
682.862	25317.8302
683.059	25487.07139
683.256	25550.28558
683.453	25105.78967
683.65	25370.84397
683.847	25317.8302
684.044	25048.70591
684.241	24814.27359
684.438	25179.18565
684.635	24651.20874
684.831	25048.70591
685.028	24991.62392
685.225	25050.74458
685.422	24594.13975
685.619	25030.35793
685.815	24728.66261
686.012	24897.85028
686.209	24826.50408
686.405	25344.33691
686.602	25024.24198
686.799	25052.78326
686.996	24924.35103
687.192	24797.96641
687.389	25005.89425
687.586	25022.20334
687.782	24838.73465
687.979	24812.23518
688.175	24691.97349
688.372	24747.00746
688.568	24453.51387
688.765	24559.49167
688.962	24371.99722
689.158	24449.43794
689.355	24343.46738
689.551	24420.90671
689.748	24630.82673
689.944	24506.50191
690.14	24398.48967
690.337	24363.84578
690.533	24736.81585
690.73	24353.65655
690.926	24400.52757
691.123	24113.20999
691.319	24217.1272
691.515	24482.04568
691.712	24217.1272
691.908	24410.71711
692.104	24296.59805
692.301	24402.56548
692.497	24194.71308
692.693	24475.93168
692.889	24200.82599
693.086	24424.98257
693.282	24771.46757
693.478	24653.24695
693.674	24516.69212
693.87	24239.54164
694.067	24274.18278
694.263	24233.42858
694.459	24211.01422
694.655	24614.52131
694.851	24345.50521
695.047	24388.30022
695.243	24125.43517
695.439	24339.39173
695.635	24325.12704
695.831	24109.13495
696.027	23762.79792
696.224	24239.54164
696.42	24498.34979
696.615	24506.50191
696.811	24585.98719
697.007	23872.80188
697.203	23838.17008
697.399	23770.94607
697.595	23836.13295
697.791	23697.61444
697.987	23459.31362
698.183	23923.7325
698.379	23579.4772
698.575	23730.2058
698.77	23683.35596
698.966	23870.76469
699.162	23514.3024
699.358	23493.93593
699.554	23333.05171
699.749	23891.13669
699.945	23819.83595
700.141	23838.17008
700.337	23477.64297
700.532	23622.24985
700.728	23314.72438
700.924	23231.23647
701.119	23151.82617
701.315	23172.18732
701.511	23432.83835
701.706	23762.79792
701.902	23337.12448
702.097	23679.28214
702.293	23636.5077
702.489	23540.77928
702.684	23294.36097
702.88	23459.31362
703.075	23485.78942
703.271	23219.01918
703.466	23785.20544
703.662	23559.10974
703.857	23660.95007
704.053	24056.16045
704.248	23730.2058
704.443	23508.19243
704.639	23066.31296
704.834	23159.97059
705.03	23434.87489
705.225	23654.83944
705.42	23292.32465
705.616	23595.77138
705.811	23261.7802
706.006	23455.24047
706.202	23017.45089
706.397	22673.43564
706.592	22982.84141
706.787	23273.99789
706.983	23066.31296
707.178	23286.2157
707.373	22714.14238
707.568	22846.44885
707.763	23131.46536
707.959	23033.73803
708.154	23212.91058
708.349	23082.60074
708.544	23062.24105
708.739	22960.44756
708.934	22990.98473
709.129	23025.59443
709.324	22551.32388
709.519	23233.27269
709.714	22964.51914
709.909	23247.52637
710.104	22942.12562
710.299	22911.58967
710.494	23094.81672
710.689	23326.94257
710.884	22710.07164
711.079	23137.57357
711.274	22671.40034
711.469	22915.66108
711.664	22736.53168
711.859	22895.30414
712.054	22602.20223
712.249	22923.80396
712.443	22610.34298
712.638	22771.13415
712.833	22638.83602
713.028	23174.22345
713.223	22543.18355
713.417	22665.29446
713.612	22946.19714
713.807	23021.52265
714.002	22679.54156
714.196	23015.41501
714.391	22728.39006
714.586	22502.48275
714.78	22427.19005
714.975	22642.90651
715.17	22347.83284
715.364	22970.62653
715.559	22585.92092
715.754	22488.23781
715.948	22366.14555
716.143	22724.31928
716.337	22382.42377
716.532	22815.91529
716.726	22720.24851
716.921	22699.89486
717.115	22203.37631
717.31	22494.34276
717.504	22113.86332
717.699	22410.9112
717.893	22471.95809
718.088	22522.83297
718.282	22480.09792
718.476	22374.28463
718.671	22282.72337
718.865	22533.00821
719.059	22052.83589
719.254	22412.94604
719.448	21829.09787
719.642	21938.92713
719.837	21879.94336
720.031	21894.18053
720.225	21660.30821
720.419	22201.34184
720.614	21808.76035
720.808	22130.13787
721.002	21963.33515
721.196	21987.74371
721.39	21650.14102
721.585	21733.51489
721.779	21782.32215
721.973	21853.50341
722.167	21463.08222
722.361	22113.86332
722.555	21904.35005
722.749	22058.93848
722.943	21947.06308
723.137	21408.1909
723.331	21448.85086
723.525	21452.91694
723.719	21263.86101
723.913	21434.61969
724.107	21251.66504
724.301	21520.00961
724.495	20908.20559
724.689	21461.04916
724.883	21280.12252
725.077	21434.61969
725.271	22006.0505
725.465	22014.18694
725.659	21822.99658
725.853	21951.13107
726.046	21605.40653
726.24	21406.15795
726.434	21174.42733
726.628	21737.58208
726.822	21316.71186
727.015	21737.58208
727.209	20851.31237
727.403	21253.69769
727.596	21241.50185
727.79	21337.03983
727.984	21288.25337
728.177	21625.74015
728.371	21237.4366
728.565	21107.35723
728.758	21566.77373
728.952	21444.78479
729.146	21042.32379
729.339	20979.32665
729.533	21001.68003
729.726	20987.45509
729.92	21381.76279
730.113	21540.34158
730.307	21131.74584
730.5	20981.35876
730.694	21192.71994
730.887	21237.4366
731.081	21493.57865
731.274	21009.80865
731.468	21026.06609
731.661	21005.74433
731.854	21007.77649
732.048	20883.82239
732.241	20879.75858
732.435	20900.07779
732.628	20952.90967
732.821	21170.36235
733.014	21200.8501
733.208	21304.51527
733.401	20881.79048
733.594	20751.75705
733.788	20597.36443
733.981	20971.19828
734.174	20954.94172
734.367	20867.56725
734.56	21070.77541
734.754	21103.29252
734.947	20686.7467
735.14	20806.61283
735.333	20826.93056
735.526	20455.18201
735.719	20796.45413
735.912	20690.80972
736.105	20818.80342
736.298	20898.04585
736.491	20731.44086
736.684	20475.49253
736.877	20678.6207
737.07	20518.14598
737.263	20459.24408
737.456	20447.05792
737.649	20918.36543
737.842	20932.58939
738.035	21093.13081
738.228	20654.24312
738.421	20833.02596
738.614	20908.20559
738.807	20891.95006
739	20739.56728
739.192	20928.52538
739.385	20763.94696
739.578	20548.61386
739.771	20201.33592
739.964	20296.77435
740.156	20142.453
740.349	20079.51311
740.542	20378.00586
740.735	20087.63416
740.927	20570.95757
741.12	20020.63752
741.313	20063.27122
741.505	20327.23538
741.698	20140.42262
741.891	20302.86648
742.083	20191.18344
742.276	20183.06153
742.468	20696.90428
742.661	20302.86648
742.854	19908.98663
743.046	20140.42262
743.239	20097.78557
743.431	20051.08997
743.624	20097.78557
743.816	20176.97014
744.009	20256.16112
744.201	20349.57407
744.393	20002.36651
744.586	20049.05978
744.778	19813.58595
744.971	19659.34062
745.163	19667.45819
745.355	19904.92684
745.548	19945.52552
745.74	19886.65798
745.932	20150.57458
746.125	20154.63539
746.317	19862.30003
746.509	19766.90388
746.702	19793.28913
746.894	19488.88705
747.086	19643.10568
747.278	19888.68784
747.471	19559.90579
747.663	19931.31579
747.855	20434.87191
748.047	20010.48692
748.239	19874.47893
748.431	19933.34574
748.623	19900.86706
748.815	19645.13503
749.008	19890.7177
749.2	19691.81131
749.392	20002.36651
749.584	19657.31124
749.776	19752.69674
749.968	19592.37321
750.16	19501.06133
750.352	19413.81563
750.544	19568.02255
750.736	19551.78911
750.928	19732.40118
751.12	19200.80597
751.311	19367.15248
751.503	19935.37569
751.695	19878.5386
751.887	19663.3994
752.079	19783.14087
752.271	19529.46856
752.463	19444.24931
752.654	19397.58472
752.846	19687.75242
753.038	19028.4027
753.23	18916.86326
753.421	19032.45891
753.613	19172.40811
753.805	19693.84076
753.997	19326.5776
754.188	19101.41696
754.38	19484.82899
754.572	19328.60631
754.763	19324.5489
754.955	18927.0027
755.146	19379.32527
755.338	19190.66378
755.53	19336.72117
755.721	19170.37972
755.913	19417.8734
756.104	19085.19111
756.296	19154.15276
756.487	18884.41771
756.679	18902.6682
756.87	18519.47513
757.062	18247.87692
757.253	18776.94913
757.445	18699.90304
757.636	18791.14245
757.827	19024.3465
758.019	18831.69587
758.21	18967.56149
758.401	18768.83874
758.593	18896.58467
758.784	18967.56149
758.975	18691.79325
759.167	19257.6041
759.358	19306.29079
759.549	19064.90917
759.74	18916.86326
759.932	18912.80751
760.123	18557.99086
760.314	18819.52968
760.505	18880.36209
760.696	18809.39129
760.888	18551.90934
761.079	18531.63784
761.27	18324.89043
761.461	18178.97464
761.652	18181.00111
761.843	18037.13029
762.034	17998.63272
762.225	17802.11229
762.416	17980.39748
762.607	17816.29308
762.798	18120.20839
762.989	17958.11035
763.18	18099.94488
763.371	17858.83648
763.562	17838.57753
763.753	17660.31344
763.944	17842.62929
764.135	17864.91423
764.326	18373.53333
764.517	18008.76353
764.708	17988.50199
764.899	17773.7512
765.089	18031.05164
765.28	18075.62914
765.471	18282.32967
765.662	17818.31893
765.853	17725.13373
766.043	17719.05668
766.234	17633.98117
766.425	17247.16124
766.615	17731.21081
766.806	17311.96094
766.997	17522.58149
767.187	17500.30272
767.378	17528.65758
767.569	17603.59846
767.759	17366.63807
767.95	17352.46231
768.141	17617.77697
768.331	17427.39305
768.522	17133.76897
768.712	17135.79375
768.903	17287.6607
769.093	16783.52215
769.284	16722.79349
769.474	16700.52685
769.665	16514.30758
769.855	16805.78988
770.046	17111.49654
770.236	16955.59887
770.426	17034.55801
770.617	16848.30182
770.807	16356.44014
770.998	16554.78844
771.188	16417.15694
771.378	16575.02919
771.569	16487.99548
771.759	16453.58788
771.949	16463.7077
772.139	16817.93604
772.33	16481.92351
772.52	16473.82757
772.71	16797.69249
772.9	15967.89013
773.09	16658.01859
773.281	16674.21209
773.471	16846.27742
773.661	16613.48723
773.851	16469.77962
774.041	16413.1091
774.231	16247.15419
774.421	16291.67745
774.611	16245.13042
774.802	15957.7724
774.992	16500.13948
775.182	16222.86913
775.372	16437.39627
775.562	16348.3447
775.752	16471.80359
775.942	16313.93941
776.131	15971.93723
776.321	15700.79223
776.511	15634.02059
776.701	15925.39588
776.891	15741.26037
777.081	15551.06314
777.271	15625.92713
777.461	15609.74023
777.651	15686.62846
777.84	15690.67525
778.03	15769.58831
778.22	15721.02625
778.41	15947.6547
778.599	15723.04966
778.789	15953.72531
778.979	16091.32929
779.169	15745.30721
779.358	15735.19012
779.548	15631.99722
779.738	15708.88582
779.927	15642.11407
780.117	15559.1565
780.307	15536.89979
780.496	15553.08648
780.686	15648.18419
780.875	15607.71687
781.065	15474.17678
781.254	15411.45431
781.444	15460.0136
781.633	15047.26436
781.823	15538.92313
782.012	15273.87088
782.202	15334.56927
782.391	15269.82433
782.581	15387.17476
782.77	15255.6614
782.96	15229.35885
783.149	14946.10017
783.338	15136.28839
783.528	15025.0083
783.717	15063.45057
783.906	14857.07482
784.096	14652.71628
784.285	14857.07482
784.474	14992.6358
784.663	14470.60604
784.853	14612.24816
785.042	14411.92381
785.231	14743.76814
785.42	14626.41205
785.61	14391.68827
785.799	14705.32424
785.988	14836.84164
786.177	14539.4044
786.366	14768.04833
786.555	14865.16808
786.744	14604.15448
786.933	14638.55249
787.122	14814.58507
787.312	14737.69807
787.501	14482.74704
787.69	14191.3472
787.879	14474.65305
788.068	14379.54687
788.257	14509.05237
788.445	13999.08214
788.634	14446.32389
788.823	13999.08214
789.012	14185.27597
789.201	14025.39332
789.39	13853.35084
789.579	13772.38281
789.768	14318.83898
789.957	14092.18144
790.145	14154.91955
790.334	13746.06718
790.523	13820.96419
790.712	13788.5768
790.9	14037.5368
791.089	13687.36119
791.278	14102.30063
791.467	13800.72216
791.655	14059.79963
791.844	13754.16435
792.033	13883.71267
792.221	13470.73189
792.41	13808.819
792.599	13158.87011
792.787	13709.62929
792.976	13818.94
793.164	14037.5368
793.353	13701.53184
793.541	13944.4345
793.73	14031.46507
793.918	13918.122
794.107	13847.2784
794.295	13918.122
794.484	13715.70234
794.672	13650.92163
794.861	13482.88041
795.049	13681.288
795.238	13407.96233
795.426	13521.34984
795.614	13217.60506
795.803	13375.56367
795.991	13553.74414
796.179	13582.08839
796.368	13337.08893
796.556	13592.21118
796.744	12749.6361
796.932	13195.32673
797.121	13175.07324
797.309	13525.39918
797.497	13146.71757
797.685	13337.08893
797.874	13209.50391
798.062	13395.81295
798.25	13146.71757
798.438	13630.67697
798.626	13175.07324
798.814	13391.76313
799.002	13118.361
799.19	13207.47862
799.378	13004.92534
799.566	13087.97794
799.755	13085.95236
799.943	12921.86432
800.131	13177.09861
800.318	13150.76844
800.506	12958.3312
800.694	12978.58985
800.882	12940.09797
801.07	13203.42801
801.258	12881.34357
801.446	13118.361
801.634	12413.16188
801.822	12834.74206
802.01	12694.91981
802.197	12814.47963
802.385	12660.46663
802.573	12595.60886
802.761	12881.34357
802.949	13146.71757
803.136	12725.31827
803.324	12907.6823
803.512	13106.2079
803.699	12942.1239
803.887	13019.10564
804.075	12727.34479
804.262	12591.55504
804.45	12931.99418
804.638	12559.1236
804.825	12723.29175
805.013	12338.1404
805.201	12889.44789
805.388	12931.99418
805.576	13073.79881
805.763	12992.77061
805.951	12587.50119
806.138	13065.69634
806.326	13085.95236
806.513	12944.14983
806.701	12978.58985
806.888	12648.30627
807.075	12940.09797
807.263	12642.22601
807.45	12788.13764
807.638	12372.61088
807.825	13004.92534
808.012	12713.15905
808.2	12759.76828
808.387	12719.23869
808.574	13126.46297
808.761	12723.29175
808.949	12978.58985
809.136	12940.09797
809.323	13209.50391
809.51	13365.43888
809.698	13013.0284
809.885	13162.92092
810.072	13258.10974
810.259	13179.12397
810.446	13035.3114
810.633	13110.25896
810.82	13173.04786
811.008	13306.71308
811.195	13312.78832
811.382	13124.43749
811.569	13179.12397
811.756	12940.09797
811.943	13385.68836
812.13	12934.02013
812.317	13053.5425
812.504	13130.51393
812.691	13079.87561
812.878	12769.90032
813.064	12990.7448
813.251	12903.63024
813.438	12836.76827
813.625	12717.21214
813.812	13217.60506
813.999	12994.79641
814.186	13069.74758
814.372	13017.0799
814.559	13023.15711
814.746	12703.0262
814.933	12780.03222
815.12	12735.4508
815.306	12751.66255
815.493	12824.61091
815.68	12921.86432
815.866	12978.58985
816.053	13179.12397
816.24	12909.70832
816.426	13025.18284
816.613	12502.36469
816.799	12676.68011
816.986	12386.80404
817.173	12917.81234
817.359	12601.68954
817.546	12804.3482
817.732	12692.8932
817.919	12903.63024
818.105	12733.42431
818.292	12735.4508
818.478	12666.54673
818.665	12571.28557
818.851	12571.28557
819.037	12822.58466
819.224	12273.24932
819.41	12664.52003
819.597	12530.74477
819.783	12435.46378
819.969	12463.84685
820.156	12589.52812
820.342	12611.82388
820.528	12850.9516
820.714	12567.23161
820.901	12978.58985
821.087	12463.84685
821.273	12778.00585
821.459	12530.74477
821.646	12563.17761
821.832	12852.97777
822.018	12459.79221
822.204	12336.11266
822.39	12524.66343
822.576	12443.57336
822.762	12761.7947
822.948	12567.23161
823.134	12411.13439
823.32	11979.11736
823.507	12246.88525
823.693	12042.01425
823.879	12119.10344
824.065	12127.21745
824.25	11887.80167
824.436	11968.97198
824.622	12246.88525
824.808	12297.58432
824.994	12088.67482
825.18	11818.7965
825.366	12106.9322
825.552	11694.96831
825.738	11713.24009
825.923	11670.60482
826.109	11707.14957
826.295	11824.88558
826.481	11849.24116
826.667	11950.7098
826.852	12161.70064
827.038	11818.7965
827.224	11906.06613
827.409	11699.02877
827.595	11441.11711
827.781	11455.33666
827.966	11971.00107
828.152	11552.82954
828.338	11747.7515
828.523	11457.36799
828.709	11268.41258
828.894	11302.95928
829.08	11609.69042
829.266	11378.13907
829.451	11526.42737
829.637	11504.08583
829.822	11642.17911
830.008	11302.95928
830.193	11400.48719
830.378	11402.51878
830.564	11518.30331
830.749	11313.11951
830.935	11518.30331
831.12	11164.75461
831.305	11437.05429
831.491	11471.587
831.676	11632.02664
831.861	11246.05726
832.047	11591.4145
832.232	11154.59059
832.417	11309.05545
832.602	11144.42632
832.788	11113.93188
832.973	10967.52458
833.158	11004.13176
833.343	10424.07052
833.528	10890.23078
833.714	10760.01414
833.899	10979.72737
834.084	10511.65232
834.269	10930.91377
834.454	10497.39643
834.639	10953.28747
834.824	11022.434
835.009	11044.80219
835.194	10827.16306
835.379	11008.199
835.564	10882.09363
835.749	11032.60152
835.934	11231.8305
836.119	11061.06913
836.304	10914.64112
836.489	10890.23078
836.674	10827.16306
836.859	10662.3198
837.044	10800.71199
837.228	10906.50452
837.413	10723.38201
837.598	10900.40195
837.783	10354.80282
837.968	10837.33603
838.152	10157.10129
838.337	10232.52828
838.522	9959.26933
838.707	10330.35177
838.891	10305.89879
839.076	10305.89879
839.261	10285.51985
839.445	10419.99637
839.63	10234.56658
839.815	10519.79826
839.999	10277.36789
840.184	10625.67721
840.368	10295.70949
840.553	10287.5578
840.737	10097.9696
840.922	10305.89879
841.106	10271.25378
841.291	10373.13987
841.475	10261.06333
841.66	10271.25378
841.844	10024.54827
842.029	9977.63053
842.213	9983.75066
842.397	9965.38986
842.582	10091.85186
842.766	10358.87781
842.951	10189.72068
843.135	10065.34017
843.319	9914.38145
843.504	9830.70778
843.688	9857.24115
843.872	9708.21316
844.056	9579.53442
844.241	9991.91065
844.425	9524.36737
844.609	9356.75133
844.793	9481.45164
844.977	9675.53867
845.161	9440.57295
845.346	9501.88858
845.53	9626.51953
845.714	9530.49761
845.898	9270.85662
846.082	9528.45421
846.266	9315.85274
846.45	9765.3841
846.634	9501.88858
846.818	9687.79207
847.002	9653.07267
847.186	9681.66544
847.37	9405.82097
847.554	9389.46547
847.738	9354.70656
847.922	9395.5989
848.106	9352.66177
848.29	9669.41177
848.473	9424.21966
848.657	9579.53442
848.841	9315.85274
849.025	9377.19816
849.209	9221.76073
849.392	9307.67222
849.576	9117.39958
849.76	9369.01963
849.944	9123.5397
850.127	9225.85242
850.311	9027.32662
850.495	9258.58356
850.678	8732.30315
850.862	8840.93147
851.046	8840.93147
851.229	9012.99372
851.413	8742.5533
851.596	9025.27911
851.78	8711.80149
851.964	8756.90273
852.147	8623.62329
852.331	8699.49961
852.514	8348.61193
852.698	8732.30315
852.881	8422.52931
853.065	8434.84644
853.248	8077.36397
853.431	8266.45194
853.615	8650.28544
853.798	8754.85286
853.982	8453.32084
854.165	8672.84326
854.348	8467.68875
854.532	8842.98057
854.715	8518.99507
854.898	8720.00238
855.081	8332.18243
855.265	8590.80402
855.448	8229.4697
855.631	8441.00475
855.814	8219.19572
855.997	8399.9461
856.181	8264.39754
856.364	8350.66553
856.547	8067.08259
856.73	8330.12866
856.913	8114.37274
857.096	8311.64381
857.279	7848.99762
857.462	7830.47033
857.645	7752.22535
857.828	7838.70489
858.011	7614.19316
858.194	7702.79188
858.377	7748.10636
858.56	7906.62738
858.743	7659.52764
858.926	7904.56945
859.109	7851.05611
859.292	8036.23544
859.475	7918.9745
859.658	7962.18363
859.841	7764.58183
860.023	7844.88059
860.206	7766.64117
860.389	7861.34822
860.572	7377.04867
860.755	7863.40658
860.937	7822.23543
861.12	7733.68922
861.303	7599.7664
861.486	7665.70881
861.668	7566.78701
861.851	7453.37848
862.034	7162.3395
862.216	7164.40515
862.399	7253.20707
862.581	7296.56062
862.764	7277.98171
862.947	7610.07134
863.129	7558.54131
863.312	7463.69104
863.494	7288.30355
863.677	7372.92189
863.859	7277.98171
864.042	7277.98171
864.224	7059.02867
864.406	7346.09567
864.589	6947.39005
864.771	7269.72385
864.954	7079.6953
865.136	7191.25656
865.318	7001.15017
865.501	7123.08796
865.683	7075.56216
865.865	7106.55858
866.048	6874.99654
866.23	6988.74534
866.412	6939.11791
866.594	7108.62483
866.777	6951.52599
866.959	6959.79759
867.141	6634.8642
867.323	7030.09162
867.505	6852.23855
867.687	6916.36766
867.869	6930.84541
868.052	7063.16218
868.234	6798.43601
868.416	7017.68868
868.598	6852.23855
868.78	7129.2861
868.962	7090.02778
869.144	7139.6159
869.326	6823.26987
869.508	7040.42679
869.69	6848.10044
869.872	6775.66875
870.054	6711.4916
870.236	6744.61804
870.417	6593.43086
870.599	6632.79275
870.781	6506.39076
870.963	6543.69865
871.145	6344.63622
871.327	6518.82756
871.508	6321.81327
871.69	6396.49604
871.872	6454.56176
872.054	6462.85538
872.235	6155.74304
872.417	6311.43827
872.599	6278.23434
872.78	6549.91591
872.962	6097.58298
873.144	6348.78554
873.325	6421.38359
873.507	6516.75481
873.689	6413.08811
873.87	6516.75481
874.052	6406.86626
874.233	6448.34131
874.415	6282.38516
874.596	6551.98828
874.778	6134.9737
874.959	6670.07529
875.141	6137.05074
875.322	6545.77109
875.503	6211.80851
875.685	6259.5545
875.866	5877.23844
876.048	6209.73232
876.229	6201.42731
876.41	6188.96909
876.592	6228.41722
876.773	6475.2951
876.954	6110.0474
877.136	6705.27974
877.317	6168.20351
877.498	6334.2625
877.679	6184.81616
877.86	6259.5545
878.042	6176.51002
878.223	6238.7969
878.404	6265.78133
878.585	6398.57013
878.766	6137.05074
878.947	6400.6442
879.128	6178.58659
879.309	6419.30975
879.49	6184.81616
879.672	6510.53645
879.853	6159.89662
880.034	6288.61122
880.215	6317.66334
880.396	6429.67869
880.576	6301.06269
880.757	6723.9147
880.938	6232.56916
881.119	6578.92701
881.3	6286.53589
881.481	6396.49604
881.662	6159.89662
881.843	6164.05011
882.023	6294.83706
882.204	6531.26352
882.385	6122.51098
882.566	6417.2359
882.747	6367.45634
882.927	6500.17204
883.108	6325.96311
883.289	6800.50562
883.469	6458.70862
883.65	6591.35895
883.831	6467.00204
884.011	6725.98514
884.192	6429.67869
884.373	6757.03894
884.553	6496.02612
884.734	6616.22033
884.914	6259.5545
885.095	6483.58779
885.275	6342.56152
885.456	6628.64978
885.636	6247.10022
885.817	6715.63272
885.997	6379.90249
886.178	6610.0053
886.358	6500.17204
886.538	6496.02612
886.719	6303.13785
886.899	6419.30975
887.08	6247.10022
887.26	6421.38359
887.44	6392.34779
887.621	6564.42202
887.801	6242.94861
887.981	6440.04704
888.161	6456.6352
888.342	6498.09909
888.522	6186.89263
888.702	6574.78284
888.882	6375.75386
889.062	6371.60515
889.242	6375.75386
889.423	6668.00423
889.603	6682.50115
889.783	6651.43495
889.963	6305.21299
890.143	6531.26352
890.323	6558.20526
890.503	6537.48119
890.683	6174.43343
890.863	6668.00423
891.043	6394.42193
891.223	6564.42202
891.403	6328.03799
891.583	6431.75241
891.763	6238.7969
891.943	6278.23434
892.122	6193.12192
892.302	6195.1983
892.482	6118.35654
892.662	6259.5545
892.842	6101.73788
893.022	6325.96311
893.201	6211.80851
893.381	6236.72101
893.561	6193.12192
893.741	6444.19422
893.92	6124.58816
894.1	6184.81616
894.28	5850.19682
894.459	6083.04009
894.639	5918.83315
894.819	6278.23434
894.998	5981.20753
895.178	6110.0474
895.357	5710.7652
895.537	5927.15096
895.716	6035.24817
895.896	6193.12192
896.075	5698.27361
896.255	5744.07193
896.434	5510.79798
896.614	5922.9921
896.793	5627.47193
896.973	5968.73436
897.152	5710.7652
897.331	6176.51002
897.511	5777.37262
897.69	5900.1167
897.87	5410.73296
898.049	5731.58261
898.228	5429.49928
898.407	5669.12328
898.587	5291.83548
898.766	5939.62697
898.945	5537.88959
899.124	5783.61583
899.304	5337.73476
899.483	5589.97765
899.662	5433.66932
899.841	5489.95557
900.02	5550.39207
900.199	5571.22765
900.378	5519.13428
900.557	5421.15893
900.737	5337.73476
900.916	5460.77225
901.095	5020.38196
901.274	5302.26813
901.453	5062.16959
901.632	5070.52601
901.811	5118.5682
901.989	5087.23773
902.168	4894.96374
902.347	5076.79308
902.526	4892.87274
902.705	5074.70408
902.884	4706.68209
903.063	4955.59289
903.242	4733.88968
903.42	4702.49596
903.599	4593.62523
903.778	4786.20124
903.957	4449.06918
904.135	4683.6573
904.314	4602.00205
904.493	4608.28443
904.672	4444.87758
904.85	4608.28443
905.029	4493.07564
905.207	4708.77511
905.386	4432.30227
905.565	4532.88263
905.743	4163.84324
905.922	4335.86542
906.1	4008.48201
906.279	4226.79482
906.457	4027.38336
906.636	4434.39821
906.814	4189.02616
906.993	4025.28329
907.171	4109.26985
907.35	3997.98055
907.528	3703.73563
907.707	3804.66333
907.885	3712.14798
908.063	3838.29587
908.242	3383.84464
908.42	3739.48598
908.598	3451.22518
908.777	3630.11455
908.955	3503.85347
909.133	3745.79428
909.311	3581.72237
909.49	3710.04492
909.668	3265.88564
909.846	3596.45148
910.024	3305.91349
910.202	3611.17966
910.38	3274.31307
910.559	3529.11101
910.737	3440.69818
910.915	3758.41036
911.093	3501.74855
911.271	3823.58225
911.449	3373.3148
911.627	3693.21977
911.805	3735.28034
911.983	3926.55706
912.161	3785.74281
912.339	4079.87833
912.517	3653.25512
912.695	3871.92334
912.872	3728.97175
913.05	3836.19398
913.228	3695.32298
913.406	3945.46556
913.584	3684.80673
913.762	4052.58256
913.939	3771.02575
914.117	4161.74452
914.295	3651.15152
914.473	3861.4153
914.65	3680.6001
914.828	3794.15212
915.006	3642.73696
915.184	3817.27612
915.361	3743.69153
915.539	3937.06199
915.716	3745.79428
915.894	3621.69923
916.072	3308.02005
916.249	3651.15152
916.427	3672.1866
916.604	3855.11024
916.782	3508.06324
916.959	3636.42584
917.137	3339.61636
917.314	3596.45148
917.492	3238.49465
917.669	3583.82659
917.847	3600.65962
918.024	3628.01075
918.201	3303.80692
918.379	3487.01365
918.556	3185.81175
918.733	3442.80361
918.911	3246.92295
919.088	3187.91926
919.265	3173.16632
919.442	3375.4208
919.62	3137.33443
919.797	3592.24325
919.974	2985.52509
920.151	3230.06608
920.328	2909.5908
920.506	3204.77879
920.683	3139.44232
920.86	3023.48496
921.037	3173.16632
921.214	3171.05869
921.391	2884.27514
921.568	3120.47075
921.745	2782.99213
921.922	3046.68022
922.099	3145.76588
922.276	3145.76588
922.453	2972.87072
922.63	3095.17331
922.807	2877.94591
922.984	2702.78745
923.161	2548.65829
923.338	2873.72634
923.514	2738.67086
923.691	3000.28785
923.868	2831.52759
924.045	3069.8736
924.222	2557.1054
924.399	2772.43999
924.575	2487.4112
924.752	2662.67803
924.929	2523.31584
925.105	2614.11842
925.282	2350.09978
925.459	2728.11731
925.635	2489.52333
925.812	2546.54648
925.989	2233.88016
926.165	2415.59233
926.342	2343.76127
926.518	2466.28931
926.695	2455.72795
926.871	2647.89971
927.048	2341.64842
927.224	2383.90361
927.401	2102.83707
927.577	2267.69242
927.754	1975.99353
927.93	2263.46601
928.107	2185.27111
928.283	2309.95442
928.459	2136.65762
928.636	2305.72839
928.812	1889.30397
928.988	2411.3673
929.165	2020.39156
929.341	2056.33067
929.517	2060.55867
929.693	2142.99875
929.87	1836.44003
930.046	1971.765
930.222	1893.53295
930.398	2128.20267
930.574	1899.87637
930.751	2151.45348
930.927	1931.59277
931.103	2007.7067
931.279	1785.6879
931.455	1895.64743
931.631	1743.39264
931.807	1876.61691
931.983	1667.25769
932.159	1844.89847
932.335	1641.87854
932.511	1830.09616
932.687	1514.97852
932.863	1813.17895
933.039	1464.21738
933.215	1576.31424
933.391	1506.51835
933.566	1584.77425
933.742	1531.89881
933.918	1614.38407
934.094	1421.91635
934.27	1307.70499
934.445	1341.54501
934.621	1375.3854
934.797	1070.8455
934.973	1290.78516
935.148	1049.69993
935.324	1223.10737
935.5	1003.18171
935.675	1248.48622
935.851	994.72417
936.027	1058.1581
936.202	859.41896
936.378	958.78079
936.553	842.5081
936.729	939.75276
936.904	679.77244
937.08	935.52439
937.255	738.94201
937.431	724.14881
937.606	582.5852
937.782	662.86847
937.957	576.24783
938.133	588.92269
938.308	417.85491
938.483	540.33835
938.659	504.43287
938.834	525.55324
939.009	400.96472
939.185	457.97321
939.36	322.8615
939.535	386.18665
939.71	356.63299
939.886	392.52001
940.061	289.09456
940.236	400.96472
940.411	230.01389
940.586	362.96564
940.761	185.7134
940.937	284.87402
941.112	276.43317
941.287	204.69824
941.462	217.35571
941.637	200.47924
941.812	272.21286
941.987	217.35571
942.162	173.05775
942.337	249.00247
942.512	154.07568
942.687	160.40285
942.862	284.87402
943.037	240.56291
943.212	234.23344
943.386	230.01389
943.561	255.33235
943.736	158.29377
943.911	225.79441
944.086	204.69824
944.26	162.51195
944.435	198.36978
944.61	223.68471
944.785	225.79441
944.959	246.89255
945.134	143.53082
945.309	166.73021
945.483	240.56291
945.658	145.63975
945.833	170.94855
946.007	240.56291
946.182	183.60407
946.357	206.80777
946.531	183.60407
946.706	192.04149
946.88	192.04149
947.055	111.89944
947.229	213.13647
947.404	166.73021
947.578	189.93211
947.752	137.20416
947.927	151.96666
948.101	168.83937
948.276	173.05775
948.45	137.20416
948.624	217.35571
948.799	179.38548
948.973	208.91732
949.147	230.01389
949.321	232.12365
949.496	187.82274
949.67	236.34324
949.844	221.57502
950.018	170.94855
950.193	234.23344
950.367	223.68471
950.541	217.35571
950.715	238.45306
950.889	217.35571
951.063	139.31302
951.237	265.88252
951.411	196.26033
951.585	192.04149
951.759	170.94855
951.933	234.23344
952.107	230.01389
952.281	192.04149
952.455	120.334
952.629	187.82274
952.803	331.30395
952.977	215.24608
953.151	244.78265
953.325	189.93211
953.499	221.57502
953.672	183.60407
953.846	236.34324
954.02	196.26033
954.194	118.22533
954.368	202.58873
954.541	208.91732
954.715	132.98649
954.889	246.89255
955.062	145.63975
955.236	282.76378
955.41	149.85767
955.583	272.21286
955.757	175.16697
955.93	289.09456
956.104	183.60407
956.278	249.00247
956.451	244.78265
956.625	255.33235
956.798	204.69824
956.972	251.11241
957.145	179.38548
957.319	350.30049
957.492	175.16697
957.665	246.89255
957.839	206.80777
958.012	297.53586
958.185	208.91732
958.359	263.77245
958.532	257.44235
958.705	301.75662
958.879	217.35571
959.052	318.64038
959.225	230.01389
959.398	299.64623
959.572	234.23344
959.745	259.55236
959.918	162.51195
960.091	259.55236
960.264	154.07568
960.438	223.68471
960.611	181.49477
960.784	181.49477
960.957	257.44235
961.13	170.94855
961.303	166.73021
961.476	242.67277
961.649	128.76891
961.822	259.55236
961.995	181.49477
962.168	196.26033
962.341	177.27622
962.514	272.21286
962.686	223.68471
962.859	232.12365
963.032	189.93211
963.205	246.89255
963.378	128.76891
963.551	192.04149
963.723	230.01389
963.896	257.44235
964.069	179.38548
964.242	244.78265
964.414	139.31302
964.587	111.89944
964.76	221.57502
964.932	206.80777
965.105	154.07568
965.278	187.82274
965.45	192.04149
965.623	204.69824
965.795	179.38548
965.968	183.60407
966.14	192.04149
966.313	208.91732
966.485	170.94855
966.658	265.88252
966.83	181.49477
967.003	198.36978
967.175	90.81458
967.348	179.38548
967.52	97.13981
967.692	137.20416
967.865	192.04149
968.037	120.334
968.209	189.93211
968.382	196.26033
968.554	107.68229
968.726	192.04149
968.898	103.46523
969.071	202.58873
969.243	128.76891
969.415	154.07568
969.587	141.42191
969.759	130.87769
969.932	166.73021
970.104	145.63975
970.276	183.60407
970.448	158.29377
970.62	84.48956
970.792	187.82274
970.964	154.07568
971.136	95.03138
971.308	105.57375
971.48	246.89255
971.652	128.76891
971.824	147.7487
971.996	69.73195
972.168	111.89944
972.339	128.76891
972.511	109.79086
972.683	141.42191
972.855	177.27622
973.027	156.18471
973.199	86.59788
973.37	196.26033
973.542	114.00805
973.714	139.31302
973.886	156.18471
974.057	116.11668
974.229	111.89944
974.401	69.73195
974.572	187.82274
974.744	130.87769
974.915	86.59788
975.087	204.69824
975.259	80.27299
975.43	130.87769
975.602	122.44269
975.773	90.81458
975.945	92.92297
976.116	105.57375
976.288	82.38126
976.459	78.16474
976.63	145.63975
976.802	107.68229
976.973	173.05775
977.145	128.76891
977.316	145.63975
977.487	95.03138
977.659	122.44269
977.83	67.62381
978.001	145.63975
978.172	52.86748
978.344	73.9483
978.515	114.00805
978.686	69.73195
978.857	103.46523
979.028	111.89944
979.2	42.32793
979.371	116.11668
979.542	132.98649
979.713	86.59788
979.884	80.27299
980.055	19.14299
980.226	82.38126
980.397	71.84011
980.568	80.27299
980.739	111.89944
980.91	82.38126
981.081	198.36978
981.252	63.4076
981.423	162.51195
981.594	105.57375
981.765	59.19149
981.936	48.65159
982.106	23.35822
982.277	95.03138
982.448	192.04149
982.619	23.35822
982.79	124.55141
982.96	27.57355
983.131	130.87769
983.302	120.334
983.472	69.73195
983.643	38.11228
983.814	31.78897
983.984	101.35674
984.155	54.97546
984.326	80.27299
984.496	21.25059
984.667	86.59788
984.837	99.24826
985.008	4.39042
985.178	33.89672
985.349	82.38126
985.519	40.22009
985.69	61.29953
985.86	-6.14641
986.031	-23.00407
986.201	6.49786
986.371	63.4076
986.542	71.84011
986.712	46.54368
986.882	12.82031
987.053	38.11228
987.223	69.73195
987.393	90.81458
987.563	116.11668
987.734	10.7128
987.904	40.22009
988.074	48.65159
988.244	31.78897
988.414	52.86748
988.585	52.86748
988.755	-18.7898
988.925	36.00449
989.095	44.4358
989.265	19.14299
989.435	14.92785
989.605	46.54368
989.775	88.70622
989.945	-23.00407
990.115	78.16474
990.285	57.08346
990.455	17.0354
990.625	141.42191
990.795	29.68125
990.965	19.14299
991.134	17.0354
991.304	156.18471
991.474	54.97546
991.644	29.68125
991.814	31.78897
991.984	17.0354
992.153	59.19149
992.323	101.35674
992.493	52.86748
992.662	12.82031
992.832	42.32793
993.002	2.283
993.171	65.5157
993.341	-46.18078
993.511	44.4358
993.68	31.78897
993.85	6.49786
994.019	27.57355
994.189	-4.03909
994.358	61.29953
994.528	0.17561
994.697	14.92785
994.867	31.78897
995.036	73.9483
995.206	90.81458
995.375	36.00449
995.544	-6.14641
995.714	99.24826
995.883	61.29953
996.052	4.39042
996.222	14.92785
996.391	42.32793
996.56	71.84011
996.73	90.81458
996.899	-12.46822
997.068	-20.89695
997.237	-8.2537
997.406	-6.14641
997.576	31.78897
997.745	73.9483
997.914	63.4076
998.083	57.08346
998.252	23.35822
998.421	42.32793
998.59	-8.2537
998.759	10.7128
998.928	52.86748
999.097	19.14299
999.266	63.4076
999.435	-1.93175
999.604	36.00449
999.773	-37.75323
999.942	90.81458
1000.111	-23.00407
1000.28	78.16474
1000.448	80.27299
1000.617	-6.14641
1000.786	17.0354
1000.955	21.25059
1001.124	27.57355
1001.292	46.54368
1001.461	19.14299
1001.63	2.283
1001.798	95.03138
1001.967	44.4358
1002.136	-39.86016
1002.304	-12.46822
1002.473	-10.36097
1002.642	-4.03909
1002.81	46.54368
1002.979	-23.00407
1003.147	40.22009
1003.316	-6.14641
1003.484	25.46587
1003.653	-4.03909
1003.821	-6.14641
1003.99	46.54368
1004.158	-79.88693
1004.327	-37.75323
1004.495	31.78897
1004.663	-33.53931
1004.832	-73.56752
1005	52.86748
1005.168	-23.00407
1005.337	52.86748
1005.505	-46.18078
1005.673	-18.7898
1005.842	-6.14641
1006.01	27.57355
1006.178	19.14299
1006.346	46.54368
1006.514	25.46587
1006.683	65.5157
1006.851	25.46587
1007.019	52.86748
1007.187	-37.75323
1007.355	-79.88693
1007.523	-48.28761
1007.691	27.57355
1007.859	-10.36097
1008.027	-6.14641
1008.195	6.49786
1008.363	2.283
1008.531	33.89672
1008.699	2.283
1008.867	-20.89695
1009.035	44.4358
1009.203	-31.43231
1009.37	63.4076
1009.538	40.22009
1009.706	-6.14641
1009.874	-12.46822
1010.042	12.82031
1010.209	8.60532
1010.377	12.82031
1010.545	73.9483
1010.713	19.14299
1010.88	12.82031
1011.048	12.82031
1011.216	38.11228
1011.383	10.7128
1011.551	21.25059
1011.718	-18.7898
1011.886	12.82031
1012.054	8.60532
1012.221	23.35822
1012.389	-23.00407
1012.556	-52.50118
1012.724	61.29953
1012.891	-31.43231
1013.058	-14.57544
1013.226	-44.07393
1013.393	23.35822
1013.561	23.35822
1013.728	-10.36097
1013.895	21.25059
1014.063	19.14299
1014.23	-48.28761
1014.397	42.32793
1014.565	-14.57544
1014.732	59.19149
1014.899	33.89672
1015.066	78.16474
1015.233	31.78897
1015.401	19.14299
1015.568	-31.43231
1015.735	19.14299
1015.902	-35.64629
1016.069	-31.43231
1016.236	-54.60793
1016.403	-23.00407
1016.57	-39.86016
1016.737	10.7128
1016.904	25.46587
1017.071	14.92785
1017.238	59.19149
1017.405	10.7128
1017.572	19.14299
1017.739	-18.7898
1017.906	61.29953
1018.073	14.92785
1018.24	-41.96706
1018.407	25.46587
1018.573	36.00449
1018.74	40.22009
1018.907	92.92297
1019.074	2.283
1019.241	63.4076
1019.407	36.00449
1019.574	-10.36097
1019.741	2.283
1019.907	57.08346
1020.074	-56.71465
1020.241	-46.18078
1020.407	63.4076
1020.574	95.03138
1020.74	10.7128
1020.907	27.57355
1021.073	27.57355
1021.24	-18.7898
1021.406	-29.32529
1021.573	31.78897
1021.739	17.0354
1021.906	33.89672
1022.072	-14.57544
1022.239	71.84011
1022.405	-27.21824
1022.571	-69.35446
1022.738	46.54368
1022.904	2.283
1023.07	19.14299
1023.237	-35.64629
1023.403	-88.31244
1023.569	52.86748
1023.735	40.22009
1023.902	-20.89695
1024.068	-33.53931
1024.234	-50.3944
1024.4	-23.00407
1024.566	25.46587
1024.732	17.0354
1024.898	50.75953
1025.065	44.4358
1025.231	19.14299
1025.397	25.46587
1025.563	-25.11117
1025.729	-20.89695
1025.895	52.86748
1026.061	27.57355
1026.227	-52.50118
1026.392	40.22009
1026.558	6.49786
1026.724	21.25059
1026.89	36.00449
1027.056	-46.18078
1027.222	6.49786
1027.388	23.35822
1027.553	2.283
1027.719	19.14299
1027.885	-48.28761
1028.051	42.32793
1028.216	-1.93175
1028.382	0.17561
1028.548	21.25059
1028.713	23.35822
1028.879	-12.46822
1029.045	-10.36097
1029.21	-6.14641
1029.376	36.00449
1029.541	-1.93175
1029.707	33.89672
1029.873	-27.21824
1030.038	-14.57544
1030.204	-20.89695
1030.369	-39.86016
1030.534	-4.03909
1030.7	52.86748
1030.865	-18.7898
1031.031	-10.36097
1031.196	33.89672
1031.361	23.35822
1031.527	-4.03909
1031.692	36.00449
1031.857	12.82031
1032.023	-1.93175
1032.188	27.57355
1032.353	-23.00407
1032.518	50.75953
1032.684	-29.32529
1032.849	19.14299
1033.014	2.283
1033.179	4.39042
1033.344	4.39042
1033.509	63.4076
1033.674	23.35822
1033.839	-1.93175
1034.004	-12.46822
1034.17	31.78897
1034.335	38.11228
1034.5	23.35822
1034.664	-46.18078
1034.829	14.92785
1034.994	-23.00407
1035.159	-1.93175
1035.324	-63.03467
1035.489	19.14299
1035.654	17.0354
1035.819	-54.60793
1035.984	25.46587
1036.148	17.0354
1036.313	17.0354
1036.478	44.4358
1036.643	54.97546
1036.807	-18.7898
1036.972	14.92785
1037.137	19.14299
1037.301	-46.18078
1037.466	44.4358
1037.631	71.84011
1037.795	65.5157
1037.96	52.86748
1038.124	10.7128
1038.289	10.7128
1038.454	0.17561
1038.618	10.7128
1038.783	-39.86016
1038.947	95.03138
1039.111	6.49786
1039.276	-12.46822
1039.44	48.65159
1039.605	-18.7898
1039.769	-29.32529
1039.933	-31.43231
1040.098	10.7128
1040.262	-29.32529
1040.426	-23.00407
1040.591	52.86748
1040.755	63.4076
1040.919	-14.57544
1041.083	-48.28761
1041.248	40.22009
1041.412	-8.2537
1041.576	10.7128
1041.74	36.00449
1041.904	19.14299
1042.068	-39.86016
1042.232	2.283
1042.397	25.46587
1042.561	10.7128
1042.725	99.24826
1042.889	19.14299
1043.053	-14.57544
1043.217	2.283
1043.381	2.283
1043.544	-12.46822
1043.708	-48.28761
1043.872	-20.89695
1044.036	31.78897
1044.2	19.14299
1044.364	-33.53931
1044.528	-1.93175
1044.691	-65.14129
1044.855	12.82031
1045.019	4.39042
1045.183	-23.00407
1045.346	-44.07393
1045.51	-4.03909
1045.674	-35.64629
1045.837	-98.84375
1046.001	29.68125
1046.165	-81.99334
1046.328	12.82031
1046.492	27.57355
1046.655	-41.96706
1046.819	31.78897
1046.983	38.11228
1047.146	48.65159
1047.31	-77.78048
1047.473	2.283
1047.636	19.14299
1047.8	2.283
1047.963	-56.71465
1048.127	4.39042
1048.29	10.7128
