Data from Scatter_Coeff_Baseline_USB4F045381__31__0031.txt Node

Date: Thu Feb 13 19:22:28 EST 2025
User: mmckonesweet
Spectrometer: USB4F04538
Trigger mode: 4
Integration Time (sec): 2.400000E-3
Scans to average: 1
Electric dark correction enabled: true
Nonlinearity correction enabled: true
Boxcar width: 0
XAxis mode: Wavelengths
Number of Pixels in Spectrum: 3648
>>>>>Begin Spectral Data<<<<<
345.52	19.49425
345.736	19.49425
345.952	19.49425
346.168	-45.82964
346.384	-39.50901
346.6	6.8491
346.816	-54.2568
347.032	30.03253
347.248	-7.90249
347.464	-45.82964
347.68	25.81715
347.896	38.46358
348.112	65.86705
348.328	40.5714
348.544	-14.22423
348.76	-33.18815
348.975	-52.15005
349.191	21.60186
349.407	-33.18815
349.623	-66.89679
349.839	38.46358
350.055	4.74166
350.27	-41.61591
350.486	17.38667
350.702	-37.40208
350.918	-10.00976
351.133	-12.11701
351.349	-10.00976
351.565	8.95656
351.781	-20.54576
351.996	-26.86706
352.212	-7.90249
352.428	-14.22423
352.644	-45.82964
352.859	40.5714
353.075	6.8491
353.291	19.49425
353.506	-5.79519
353.722	-3.68787
353.938	-33.18815
354.153	61.65088
354.369	-3.68787
354.584	-28.97412
354.8	-45.82964
355.016	8.95656
355.231	-50.04327
355.447	63.75895
355.662	-52.15005
355.878	11.06405
356.093	-39.50901
356.309	-50.04327
356.524	-20.54576
356.74	-37.40208
356.955	-37.40208
357.171	-31.08114
357.386	0.52684
357.602	0.52684
357.817	-47.93647
358.033	-45.82964
358.248	-5.79519
358.464	-81.64228
358.679	-14.22423
358.895	13.17157
359.11	-24.75999
359.325	-33.18815
359.541	-10.00976
359.756	21.60186
359.972	-20.54576
360.187	-85.85504
360.402	-71.10991
360.618	55.32679
360.833	-1.58052
361.048	21.60186
361.264	15.2791
361.479	-81.64228
361.694	-45.82964
361.909	-1.58052
362.125	-1.58052
362.34	-12.11701
362.555	-62.68356
362.77	42.67924
362.986	0.52684
363.201	-24.75999
363.416	-50.04327
363.631	-28.97412
363.847	-64.79019
364.062	-7.90249
364.277	-71.10991
364.492	-90.0677
364.707	-41.61591
364.922	-31.08114
365.138	-3.68787
365.353	0.52684
365.568	23.70949
365.783	67.97517
365.998	13.17157
366.213	38.46358
366.428	-41.61591
366.643	25.81715
366.858	-3.68787
367.073	65.86705
367.288	-16.33143
367.503	15.2791
367.718	-66.89679
367.933	-71.10991
368.148	-16.33143
368.363	19.49425
368.578	-71.10991
368.793	42.67924
369.008	-39.50901
369.223	0.52684
369.438	-62.68356
369.653	15.2791
369.868	-41.61591
370.083	19.49425
370.298	-69.00336
370.513	25.81715
370.728	-1.58052
370.943	-5.79519
371.157	0.52684
371.372	-5.79519
371.587	-62.68356
371.802	34.24801
372.017	-73.21644
372.232	13.17157
372.446	-20.54576
372.661	42.67924
372.876	-7.90249
373.091	-56.36353
373.306	-45.82964
373.52	-47.93647
373.735	-20.54576
373.95	36.35578
374.165	-12.11701
374.379	-7.90249
374.594	-50.04327
374.809	-14.22423
375.023	-33.18815
375.238	-24.75999
375.453	-26.86706
375.667	-37.40208
375.882	-43.72279
376.097	-7.90249
376.311	-50.04327
376.526	17.38667
376.741	-75.32294
376.955	-1.58052
377.17	-75.32294
377.384	80.62436
377.599	-83.74867
377.813	-10.00976
378.028	-16.33143
378.242	38.46358
378.457	-43.72279
378.672	-7.90249
378.886	-73.21644
379.101	-1.58052
379.315	-64.79019
379.53	65.86705
379.744	-58.47023
379.958	0.52684
380.173	-41.61591
380.387	17.38667
380.602	13.17157
380.816	-12.11701
381.031	-83.74867
381.245	30.03253
381.459	-22.65289
381.674	42.67924
381.888	11.06405
382.103	0.52684
382.317	-5.79519
382.531	49.00291
382.746	-14.22423
382.96	-5.79519
383.174	-5.79519
383.388	-24.75999
383.603	-58.47023
383.817	-1.58052
384.031	-71.10991
384.246	-16.33143
384.46	46.895
384.674	-1.58052
384.888	-7.90249
385.103	-3.68787
385.317	-102.70506
385.531	-1.58052
385.745	6.8491
385.959	-16.33143
386.174	-14.22423
386.388	19.49425
386.602	-20.54576
386.816	-33.18815
387.03	21.60186
387.244	-37.40208
387.458	-10.00976
387.672	-35.29512
387.887	2.63424
388.101	-14.22423
388.315	-33.18815
388.529	-45.82964
388.743	-31.08114
388.957	32.14026
389.171	-16.33143
389.385	-28.97412
389.599	6.8491
389.813	-79.53586
390.027	0.52684
390.241	13.17157
390.455	-24.75999
390.669	11.06405
390.883	-54.2568
391.097	23.70949
391.311	6.8491
391.525	-39.50901
391.738	-37.40208
391.952	-7.90249
392.166	11.06405
392.38	42.67924
392.594	2.63424
392.808	-16.33143
393.022	15.2791
393.236	76.40788
393.449	-14.22423
393.663	8.95656
393.877	25.81715
394.091	-31.08114
394.305	-24.75999
394.518	-35.29512
394.732	17.38667
394.946	49.00291
395.16	-33.18815
395.373	42.67924
395.587	-7.90249
395.801	-31.08114
396.015	-58.47023
396.228	-7.90249
396.442	21.60186
396.656	2.63424
396.869	-26.86706
397.083	17.38667
397.297	15.2791
397.51	-66.89679
397.724	17.38667
397.938	-20.54576
398.151	-26.86706
398.365	27.92483
398.578	-77.42941
398.792	-7.90249
399.005	-31.08114
399.219	32.14026
399.433	-64.79019
399.646	8.95656
399.86	-26.86706
400.073	19.49425
400.287	51.11085
400.5	34.24801
400.714	-33.18815
400.927	93.27437
401.141	-3.68787
401.354	-98.49271
401.567	-41.61591
401.781	40.5714
401.994	27.92483
402.208	-12.11701
402.421	-66.89679
402.635	-31.08114
402.848	-35.29512
403.061	-22.65289
403.275	-71.10991
403.488	2.63424
403.701	51.11085
403.915	-37.40208
404.128	-62.68356
404.341	13.17157
404.555	8.95656
404.768	34.24801
404.981	-50.04327
405.195	-75.32294
405.408	36.35578
405.621	30.03253
405.834	-83.74867
406.048	-3.68787
406.261	-7.90249
406.474	15.2791
406.687	-20.54576
406.9	-10.00976
407.114	-47.93647
407.327	25.81715
407.54	17.38667
407.753	25.81715
407.966	-73.21644
408.179	34.24801
408.392	-71.10991
408.605	0.52684
408.819	-3.68787
409.032	-54.2568
409.245	-5.79519
409.458	25.81715
409.671	21.60186
409.884	4.74166
410.097	38.46358
410.31	-18.43861
410.523	-5.79519
410.736	15.2791
410.949	-39.50901
411.162	-24.75999
411.375	55.32679
411.588	-35.29512
411.801	-56.36353
412.014	-31.08114
412.227	44.78711
412.44	17.38667
412.653	-33.18815
412.865	13.17157
413.078	-45.82964
413.291	-33.18815
413.504	4.74166
413.717	32.14026
413.93	-98.49271
414.143	-69.00336
414.356	17.38667
414.568	-45.82964
414.781	-75.32294
414.994	-62.68356
415.207	34.24801
415.42	-20.54576
415.632	-37.40208
415.845	-92.17399
416.058	-26.86706
416.271	36.35578
416.483	-41.61591
416.696	8.95656
416.909	4.74166
417.121	25.81715
417.334	-16.33143
417.547	0.52684
417.759	-14.22423
417.972	8.95656
418.185	-5.79519
418.397	2.63424
418.61	-41.61591
418.823	17.38667
419.035	-3.68787
419.248	-7.90249
419.46	-58.47023
419.673	32.14026
419.885	-54.2568
420.098	-66.89679
420.311	-24.75999
420.523	36.35578
420.736	-5.79519
420.948	-3.68787
421.161	-20.54576
421.373	-60.57691
421.586	-16.33143
421.798	51.11085
422.01	4.74166
422.223	-50.04327
422.435	11.06405
422.648	-7.90249
422.86	53.21881
423.073	38.46358
423.285	-7.90249
423.497	-7.90249
423.71	80.62436
423.922	-26.86706
424.134	4.74166
424.347	-96.3865
424.559	-3.68787
424.771	27.92483
424.984	-22.65289
425.196	93.27437
425.408	-47.93647
425.621	67.97517
425.833	-47.93647
426.045	-10.00976
426.257	-75.32294
426.47	27.92483
426.682	-24.75999
426.894	-20.54576
427.106	19.49425
427.318	-31.08114
427.531	0.52684
427.743	32.14026
427.955	-1.58052
428.167	59.54283
428.379	-33.18815
428.591	0.52684
428.804	-37.40208
429.016	-31.08114
429.228	-14.22423
429.44	4.74166
429.652	2.63424
429.864	-60.57691
430.076	-7.90249
430.288	30.03253
430.5	-64.79019
430.712	25.81715
430.924	-35.29512
431.136	-14.22423
431.348	-3.68787
431.56	-37.40208
431.772	-20.54576
431.984	25.81715
432.196	-22.65289
432.408	110.14229
432.62	38.46358
432.832	2.63424
433.044	42.67924
433.256	-41.61591
433.468	-3.68787
433.679	13.17157
433.891	-73.21644
434.103	-77.42941
434.315	4.74166
434.527	38.46358
434.739	-41.61591
434.95	-16.33143
435.162	19.49425
435.374	8.95656
435.586	17.38667
435.798	-16.33143
436.009	82.73264
436.221	17.38667
436.433	51.11085
436.645	25.81715
436.856	-146.92831
437.068	0.52684
437.28	-50.04327
437.491	57.4348
437.703	-60.57691
437.915	-73.21644
438.126	-45.82964
438.338	-54.2568
438.55	61.65088
438.761	-35.29512
438.973	-28.97412
439.184	15.2791
439.396	42.67924
439.608	-16.33143
439.819	-5.79519
440.031	19.49425
440.242	-37.40208
440.454	-62.68356
440.665	-39.50901
440.877	-117.44745
441.088	-33.18815
441.3	-16.33143
441.511	-16.33143
441.723	63.75895
441.934	78.51611
442.146	-18.43861
442.357	-54.2568
442.569	19.49425
442.78	4.74166
442.991	13.17157
443.203	8.95656
443.414	8.95656
443.626	-37.40208
443.837	-47.93647
444.048	-5.79519
444.26	-18.43861
444.471	-39.50901
444.682	-18.43861
444.894	-64.79019
445.105	36.35578
445.316	34.24801
445.528	67.97517
445.739	25.81715
445.95	2.63424
446.161	-92.17399
446.373	21.60186
446.584	38.46358
446.795	-50.04327
447.006	6.8491
447.217	30.03253
447.429	4.74166
447.64	-12.11701
447.851	-28.97412
448.062	-45.82964
448.273	-75.32294
448.484	-24.75999
448.695	-39.50901
448.907	65.86705
449.118	2.63424
449.329	-1.58052
449.54	-75.32294
449.751	25.81715
449.962	70.08331
450.173	-16.33143
450.384	11.06405
450.595	-16.33143
450.806	13.17157
451.017	-26.86706
451.228	-33.18815
451.439	0.52684
451.65	-39.50901
451.861	67.97517
452.072	-37.40208
452.283	36.35578
452.494	36.35578
452.705	-45.82964
452.915	-18.43861
453.126	-28.97412
453.337	42.67924
453.548	13.17157
453.759	-7.90249
453.97	11.06405
454.181	-7.90249
454.391	-7.90249
454.602	-54.2568
454.813	2.63424
455.024	17.38667
455.235	21.60186
455.445	-54.2568
455.656	51.11085
455.867	-62.68356
456.078	-20.54576
456.288	32.14026
456.499	-26.86706
456.71	-7.90249
456.921	-28.97412
457.131	-79.53586
457.342	44.78711
457.553	11.06405
457.763	-37.40208
457.974	-43.72279
458.184	-31.08114
458.395	46.895
458.606	0.52684
458.816	8.95656
459.027	-14.22423
459.237	-24.75999
459.448	93.27437
459.659	-10.00976
459.869	13.17157
460.08	27.92483
460.29	11.06405
460.501	-22.65289
460.711	6.8491
460.922	-102.70506
461.132	21.60186
461.343	-10.00976
461.553	-47.93647
461.764	-16.33143
461.974	8.95656
462.184	-20.54576
462.395	-7.90249
462.605	57.4348
462.816	-92.17399
463.026	19.49425
463.236	-39.50901
463.447	13.17157
463.657	44.78711
463.867	-71.10991
464.078	8.95656
464.288	-28.97412
464.498	55.32679
464.709	59.54283
464.919	-39.50901
465.129	-31.08114
465.339	25.81715
465.55	30.03253
465.76	21.60186
465.97	21.60186
466.18	67.97517
466.391	17.38667
466.601	0.52684
466.811	-18.43861
467.021	-5.79519
467.231	-16.33143
467.441	11.06405
467.651	-22.65289
467.862	-14.22423
468.072	34.24801
468.282	11.06405
468.492	8.95656
468.702	-5.79519
468.912	-18.43861
469.122	-7.90249
469.332	-58.47023
469.542	8.95656
469.752	42.67924
469.962	-56.36353
470.172	23.70949
470.382	27.92483
470.592	-16.33143
470.802	13.17157
471.012	4.74166
471.222	0.52684
471.432	-66.89679
471.642	-1.58052
471.852	-56.36353
472.062	25.81715
472.272	-10.00976
472.482	-3.68787
472.691	42.67924
472.901	17.38667
473.111	-33.18815
473.321	-3.68787
473.531	11.06405
473.741	51.11085
473.95	-35.29512
474.16	-7.90249
474.37	-12.11701
474.58	-50.04327
474.79	-10.00976
474.999	-12.11701
475.209	-3.68787
475.419	-22.65289
475.628	34.24801
475.838	-24.75999
476.048	-58.47023
476.258	-12.11701
476.467	-24.75999
476.677	6.8491
476.886	8.95656
477.096	-33.18815
477.306	72.19148
477.515	42.67924
477.725	17.38667
477.935	-16.33143
478.144	70.08331
478.354	42.67924
478.563	-22.65289
478.773	57.4348
478.982	-16.33143
479.192	27.92483
479.401	4.74166
479.611	8.95656
479.82	13.17157
480.03	42.67924
480.239	-3.68787
480.449	-16.33143
480.658	-28.97412
480.868	-24.75999
481.077	27.92483
481.287	53.21881
481.496	55.32679
481.705	-24.75999
481.915	59.54283
482.124	105.92518
482.333	0.52684
482.543	8.95656
482.752	76.40788
482.961	76.40788
483.171	8.95656
483.38	30.03253
483.589	4.74166
483.799	15.2791
484.008	-16.33143
484.217	72.19148
484.426	40.5714
484.636	-24.75999
484.845	74.29967
485.054	-3.68787
485.263	17.38667
485.472	11.06405
485.682	-7.90249
485.891	-7.90249
486.1	42.67924
486.309	67.97517
486.518	-39.50901
486.727	53.21881
486.936	44.78711
487.146	44.78711
487.355	4.74166
487.564	65.86705
487.773	25.81715
487.982	-14.22423
488.191	42.67924
488.4	51.11085
488.609	114.35949
488.818	13.17157
489.027	84.84094
489.236	53.21881
489.445	-3.68787
489.654	55.32679
489.863	34.24801
490.072	53.21881
490.281	44.78711
490.49	53.21881
490.698	25.81715
490.907	78.51611
491.116	-14.22423
491.325	11.06405
491.534	70.08331
491.743	25.81715
491.952	97.49122
492.16	-16.33143
492.369	72.19148
492.578	76.40788
492.787	46.895
492.996	67.97517
493.204	36.35578
493.413	61.65088
493.622	19.49425
493.831	51.11085
494.039	-20.54576
494.248	17.38667
494.457	34.24801
494.665	42.67924
494.874	6.8491
495.083	89.05761
495.291	84.84094
495.5	0.52684
495.709	19.49425
495.917	80.62436
496.126	30.03253
496.335	89.05761
496.543	30.03253
496.752	63.75895
496.96	112.25088
497.169	46.895
497.377	143.8823
497.586	59.54283
497.794	114.35949
498.003	27.92483
498.211	57.4348
498.42	27.92483
498.628	65.86705
498.837	137.55563
499.045	108.03372
499.254	131.22915
499.462	72.19148
499.671	51.11085
499.879	19.49425
500.087	105.92518
500.296	89.05761
500.504	114.35949
500.713	44.78711
500.921	61.65088
501.129	89.05761
501.338	67.97517
501.546	129.12037
501.754	76.40788
501.962	89.05761
502.171	110.14229
502.379	99.59967
502.587	124.90287
502.795	112.25088
503.004	103.81665
503.212	32.14026
503.42	114.35949
503.628	131.22915
503.837	67.97517
504.045	36.35578
504.253	177.62776
504.461	160.75436
504.669	99.59967
504.877	76.40788
505.085	49.00291
505.294	169.1909
505.502	53.21881
505.71	38.46358
505.918	160.75436
506.126	84.84094
506.334	108.03372
506.542	78.51611
506.75	110.14229
506.958	57.4348
507.166	34.24801
507.374	84.84094
507.582	91.16598
507.79	93.27437
507.998	114.35949
508.206	152.31817
508.414	139.6645
508.622	139.6645
508.83	86.94927
509.037	118.57677
509.245	80.62436
509.453	169.1909
509.661	194.50247
509.869	124.90287
510.077	103.81665
510.285	129.12037
510.492	118.57677
510.7	247.24421
510.908	122.79415
511.116	127.01161
511.324	148.10019
511.531	122.79415
511.739	154.42718
511.947	148.10019
512.155	162.86346
512.362	207.15936
512.57	59.54283
512.778	169.1909
512.985	156.53622
513.193	188.1743
513.401	145.99124
513.608	148.10019
513.816	148.10019
514.024	162.86346
514.231	105.92518
514.439	160.75436
514.646	224.03632
514.854	245.1343
515.061	202.94032
515.269	160.75436
515.477	247.24421
515.684	236.69488
515.892	186.06495
516.099	236.69488
516.307	190.28367
516.514	152.31817
516.722	183.95562
516.929	207.15936
517.136	173.40929
517.344	245.1343
517.551	257.79401
517.759	312.66058
517.966	230.36551
518.173	268.3443
518.381	207.15936
518.588	232.47528
518.796	228.25576
519.003	270.45441
519.21	198.72135
519.418	211.37848
519.625	291.55658
519.832	268.3443
520.039	148.10019
520.247	262.01407
520.454	257.79401
520.661	253.57403
520.868	207.15936
521.076	287.336
521.283	194.50247
521.49	289.44628
521.697	253.57403
521.904	257.79401
522.112	272.56455
522.319	304.21876
522.526	278.89506
522.733	361.20655
522.94	278.89506
523.147	247.24421
523.354	321.10269
523.561	247.24421
523.768	340.09847
523.975	299.99796
524.183	371.76124
524.39	329.54508
524.597	287.336
524.804	272.56455
525.011	321.10269
525.218	278.89506
525.425	228.25576
525.632	304.21876
525.838	337.98775
526.045	352.76311
526.252	289.44628
526.459	388.64961
526.666	306.32919
526.873	464.66014
527.08	266.2342
527.287	312.66058
527.494	394.98302
527.701	346.43071
527.907	424.5409
528.114	361.20655
528.321	426.6523
528.528	388.64961
528.735	342.2092
528.941	380.20529
529.148	405.53904
529.355	468.88354
529.562	458.32515
529.768	473.107
529.975	523.79316
530.182	449.87871
530.388	496.33711
530.595	428.76371
530.802	458.32515
531.008	380.20529
531.215	437.20952
531.422	494.22521
531.628	532.24166
531.835	528.01738
532.042	468.88354
532.248	561.81316
532.455	418.2068
532.661	475.21875
532.868	437.20952
533.074	528.01738
533.281	380.20529
533.487	599.83753
533.694	443.54405
533.9	627.30218
534.107	582.93728
534.313	534.35382
534.52	517.45693
534.726	595.61239
534.933	623.07671
535.139	582.93728
535.345	544.91483
535.552	585.04977
535.758	593.49984
535.965	561.81316
536.171	473.107
536.377	566.03788
536.584	582.93728
536.79	572.37505
536.996	646.31739
537.203	692.80309
537.409	549.13933
537.615	625.18944
537.821	637.86606
538.028	680.12461
538.234	557.58849
538.44	690.68998
538.646	654.76892
538.853	709.70835
539.059	616.7386
539.265	764.6552
539.471	574.48747
539.677	692.80309
539.883	692.80309
540.09	762.54173
540.296	663.22063
540.502	737.18088
540.708	642.09171
540.914	728.7276
541.12	751.97453
541.326	796.35845
541.532	747.74772
541.738	813.26773
541.944	735.06755
542.15	821.7226
542.356	790.01762
542.562	897.82273
542.768	745.63433
542.974	787.90403
543.18	830.17761
543.386	887.25261
543.592	921.07767
543.798	918.96355
544.004	828.06384
544.21	1007.76292
544.415	756.20138
544.621	857.65739
544.827	838.63277
545.033	914.73532
545.239	777.33623
545.445	1064.8542
545.651	762.54173
545.856	1064.8542
546.062	954.90467
546.268	1081.77092
546.474	821.7226
546.679	918.96355
546.885	811.15404
547.091	988.73347
547.297	946.44774
547.502	1094.45868
547.708	965.47598
547.914	1047.93783
548.119	1134.63772
548.325	963.3617
548.531	921.07767
548.736	1077.54171
548.942	992.96219
549.147	1094.45868
549.353	923.1918
549.559	1105.03195
549.764	1033.1363
549.97	1115.60533
550.175	1098.68797
550.381	1107.14661
550.586	1234.03433
550.792	1187.50725
550.997	1016.22061
551.203	1174.81834
551.408	1105.03195
551.614	1217.11521
551.819	1124.06413
552.025	1221.34497
552.23	1073.31252
552.435	1149.44094
552.641	1081.77092
552.846	1269.98806
553.052	1227.68963
553.257	1263.64323
553.462	1145.21142
553.668	1377.85294
553.873	1227.68963
554.078	1316.51745
554.283	1320.74745
554.489	1392.65821
554.694	1227.68963
554.899	1399.00334
555.105	1337.66748
555.31	1528.02125
555.515	1346.12754
555.72	1356.70265
555.925	1301.71254
556.131	1363.04772
556.336	1310.17248
556.541	1289.02269
556.746	1267.87311
556.951	1498.41068
557.156	1377.85294
557.361	1360.9327
557.567	1456.10968
557.772	1528.02125
557.977	1390.54317
558.182	1470.91504
558.387	1289.02269
558.592	1644.34597
558.797	1462.45484
559.002	1602.04669
559.207	1422.26885
559.412	1553.40159
559.617	1428.614
559.822	1481.4903
560.027	1530.13629
560.232	1599.9317
560.437	1443.41937
560.642	1654.92065
560.847	1678.18471
561.051	1716.25242
561.256	1618.9665
561.461	1728.94142
561.666	1572.43673
561.871	1627.42636
562.076	1709.90787
562.281	1747.9747
562.485	1547.05652
562.69	1775.46669
562.895	1513.21599
563.1	1898.11431
563.305	1515.33103
563.509	1758.54862
563.714	1659.1505
563.919	1767.00769
564.123	1695.10381
564.328	1665.49526
564.533	1684.52939
564.737	1731.05625
564.942	1563.97668
565.147	1838.90708
565.351	1709.90787
565.556	1834.67785
565.761	1800.84331
565.965	1895.99984
566.17	1733.17107
566.374	1900.22878
566.579	1834.67785
566.784	1794.49921
566.988	1895.99984
567.193	2012.28737
567.397	1726.8266
567.602	1851.59467
567.806	1872.74027
568.011	1898.11431
568.215	2003.83073
568.42	2105.30322
568.624	1855.82383
568.828	1938.28829
569.033	1699.33356
569.237	2103.18938
569.442	1851.59467
569.646	1834.67785
569.85	1889.65638
570.055	1972.11738
570.259	2033.42853
570.463	2130.66871
570.668	1974.23165
570.872	2079.93663
571.076	2029.20035
571.281	2223.6656
571.485	2037.65668
571.689	2206.75828
571.893	2073.59482
572.098	2084.16447
572.302	2020.74392
572.506	2259.59177
572.71	1970.00311
572.914	2122.21367
573.119	2005.9449
573.323	2276.49731
573.527	2139.12362
573.731	2234.23239
573.935	2145.46473
574.139	2399.04407
574.343	2101.07553
574.547	2191.96393
574.751	2227.89234
574.955	2308.19358
575.159	2261.705
575.364	2200.41789
575.568	2054.569
575.772	2306.08056
575.976	2164.48761
576.18	2291.28916
576.383	2122.21367
576.587	2242.68566
576.791	2244.79895
576.995	2268.04461
577.199	2293.40225
577.403	2375.80501
577.607	2335.66194
577.811	2504.65991
578.015	2210.98516
578.219	2284.94985
578.422	2276.49731
578.626	2557.45736
578.83	2244.79895
579.034	2559.56911
579.238	2464.52911
579.442	2625.02731
579.645	2291.28916
579.849	2561.68084
580.053	2475.09023
580.257	2663.02988
580.46	2462.41685
580.664	2546.89845
580.868	2510.99599
581.071	2696.80651
581.275	2468.75359
581.479	2462.41685
581.682	2502.54787
581.886	2646.14035
582.09	2559.56911
582.293	2679.91861
582.497	2610.24744
582.7	2629.25002
582.904	2652.47402
583.107	2532.11549
583.311	2489.87535
583.515	2732.69056
583.718	2551.12205
583.922	2802.33685
584.125	2667.25214
584.329	2667.25214
584.532	2958.45813
584.735	2833.98934
584.939	2726.35835
585.142	2791.78533
585.346	2595.46698
585.549	2865.63869
585.753	2715.80442
585.956	2918.38047
586.159	2798.11628
586.363	3011.18369
586.566	2890.95586
586.769	3135.57784
586.973	2833.98934
587.176	2966.89485
587.379	2819.21857
587.582	3051.24876
587.786	2897.28484
587.989	3205.13001
588.192	2831.87927
588.395	3084.98342
588.599	2831.87927
588.802	3278.87781
589.005	2831.87927
589.208	3203.02263
589.411	3125.0381
589.615	3316.79719
589.818	3093.41646
590.021	3186.163
590.224	2992.20357
590.427	3287.30482
590.63	3053.35729
590.833	3093.41646
591.036	3061.79127
591.239	3194.59295
591.442	2969.00399
591.645	3350.49864
591.848	3032.27126
592.051	3390.51332
592.254	3019.6189
592.457	3169.30232
592.66	3156.65613
592.863	3274.6642
593.066	3264.1299
593.269	3337.86111
593.472	3158.76387
593.675	3348.39243
593.878	3074.44177
594.081	3291.51822
594.284	3245.16708
594.486	3468.41833
594.689	3272.55738
594.892	3523.14766
595.095	3207.23738
595.298	3544.19411
595.5	3502.09937
595.703	3426.31054
595.906	3413.67681
596.109	3619.946
596.311	3394.72502
596.514	3561.02995
596.717	3457.89206
596.92	3615.7382
597.122	3470.52353
597.325	3634.67272
597.528	3472.62872
597.73	3779.78602
597.933	3472.62872
598.136	3790.29789
598.338	3548.40318
598.541	3632.56896
598.743	3542.08955
598.946	3552.61218
599.148	3527.3571
599.351	3685.15728
599.554	3424.20497
599.756	3775.58113
599.959	3457.89206
600.161	3693.5703
600.363	3714.60152
600.566	3832.34048
600.768	3695.67351
600.971	3882.78112
601.173	3762.966
601.376	3754.55552
601.578	3750.35017
601.78	3798.70704
601.983	3723.01347
602.185	3775.58113
602.388	3691.46708
602.59	3800.80928
602.792	3735.63082
602.995	4132.71016
603.197	3666.22685
603.399	3874.37514
603.601	3729.32223
603.804	4172.58765
604.006	3994.12988
604.208	3855.46053
604.41	3847.05351
604.613	3897.49081
604.815	3655.70928
605.017	3918.50294
605.219	3720.91051
605.421	3941.61396
605.623	3811.32017
605.826	4256.51531
606.028	3729.32223
606.23	4008.83205
606.432	3941.61396
606.634	4212.45752
606.836	3853.3588
607.038	4080.22826
607.24	4042.43324
607.442	4040.33332
607.644	4134.80916
607.846	4153.69926
608.048	3880.67966
608.25	4055.03232
608.452	3983.62772
608.654	4243.92833
608.856	3893.28814
609.058	4044.53314
609.26	3926.90723
609.462	4120.11569
609.664	3966.82319
609.866	4111.71896
610.067	3922.70513
610.269	4248.12407
610.471	4013.03249
610.673	4176.78484
610.875	4094.9245
611.077	4281.68696
611.278	3985.72819
611.48	4229.24255
611.682	4103.3219
611.884	4451.51424
612.085	3962.62186
612.287	4191.47433
612.489	4155.79805
612.69	4227.1445
612.892	4097.02388
613.094	4342.50566
613.295	4170.48902
613.497	4434.74753
613.699	4183.08046
613.9	4405.40242
614.102	4208.26106
614.304	4250.22191
614.505	4319.43863
614.707	4292.17423
614.908	4225.04642
615.11	4409.59484
615.311	4229.24255
615.513	4369.76333
615.714	4340.40877
615.916	4371.85992
616.117	4357.18332
616.319	4413.78717
616.52	4239.7325
616.722	4308.95276
616.923	4298.46634
617.124	4210.3593
617.326	4134.80916
617.527	4438.93934
617.729	4239.7325
617.93	4480.8526
618.131	4373.95649
618.333	4428.45965
618.534	4334.11796
618.735	4543.70595
618.937	4338.31185
619.138	4405.40242
619.339	4285.88193
619.54	4537.42151
619.742	4449.41848
619.943	4539.51635
620.144	4243.92833
620.345	4516.47194
620.546	4178.8834
620.748	4501.80592
620.949	4315.24435
621.15	4399.11363
621.351	4453.60998
621.552	4541.61116
621.753	4313.14717
621.954	4709.12395
622.155	4503.90114
622.356	4667.25919
622.558	4723.77448
622.759	4753.07223
622.96	4526.947
623.161	4573.0307
623.362	4478.75714
623.563	4740.5166
623.764	4449.41848
623.965	4629.57323
624.166	4623.29153
624.366	4589.78574
624.567	4380.24607
624.768	4577.21959
624.969	4401.20991
625.17	4575.12515
625.371	4813.74629
625.572	4499.71069
625.773	4482.94803
625.973	4684.00618
626.174	4499.71069
626.375	4780.27331
626.576	4621.19759
626.777	4828.38889
626.977	4497.61543
627.178	4702.84481
627.379	4602.35108
627.58	4604.44522
627.78	4397.01732
627.981	4801.1946
628.182	4614.91562
628.382	4811.6544
628.583	4788.6421
628.784	4974.75326
628.984	4610.72753
629.185	5102.20738
629.386	4614.91562
629.586	4935.0369
629.787	4614.91562
629.987	4711.21695
630.188	4667.25919
630.388	4786.54994
630.589	4579.314
630.79	4868.12745
630.99	4763.53464
631.191	4899.49418
631.391	4690.28592
631.591	4943.39892
631.792	4750.97968
631.992	5004.01262
632.193	4782.36554
632.393	4874.40121
632.594	4773.99648
632.794	4889.03917
632.994	4855.57932
633.195	4874.40121
633.395	4799.10258
633.595	5100.11866
633.796	4840.9388
633.996	5110.56202
634.196	4843.03037
634.397	5018.64061
634.597	4976.84336
634.797	5244.18561
634.997	4857.67074
635.198	4964.30239
635.398	5114.7392
635.598	5240.01132
635.798	4845.12192
635.998	5150.24147
636.199	4943.39892
636.399	5250.44687
636.599	4941.30845
636.799	5135.6237
636.999	4832.57228
637.199	5267.14254
637.399	4845.12192
637.599	5141.8886
637.799	4964.30239
637.999	5175.29786
638.199	4895.31224
638.399	5302.61587
638.599	4889.03917
638.799	5308.87517
638.999	5054.16102
639.199	5141.8886
639.399	5118.91629
639.599	5288.01003
639.799	5108.4734
639.999	5267.14254
640.199	5137.71203
640.399	5544.48823
640.599	4780.27331
640.799	5534.06922
640.998	5231.66245
641.198	5352.68435
641.398	5175.29786
641.598	5417.33614
641.798	5352.68435
641.997	5373.54223
642.197	5242.09847
642.397	5302.61587
642.597	5335.99636
642.796	5310.96156
642.996	5256.70792
643.196	5292.18324
643.395	5083.40809
643.595	5556.99026
643.795	5377.71353
643.994	5667.388
644.194	5317.22057
644.394	5471.54282
644.593	5356.85612
644.793	5581.99177
644.992	5417.33614
645.192	5438.18675
645.392	5358.94196
645.591	5469.45824
645.791	5373.54223
645.99	5459.035
646.19	5285.92338
646.389	5425.67667
646.589	5288.01003
646.788	5663.22325
646.987	5158.59397
647.187	5711.11217
647.386	5408.99525
647.586	5740.25584
647.785	5475.71191
647.984	5786.04368
648.184	5540.3207
648.383	5559.07385
648.582	5386.05584
648.782	5629.90185
648.981	5398.56859
649.18	5604.90685
649.38	5611.15592
649.579	5804.77178
649.778	5596.57442
649.977	5671.55265
650.177	5546.57196
650.376	5927.49753
650.575	5546.57196
650.774	5892.1443
650.973	5625.73626
651.173	5792.28659
651.372	5573.65831
651.571	5842.22224
651.77	5588.24162
651.969	5971.15976
652.168	5571.57489
652.367	5865.10487
652.566	5496.55592
652.765	5804.77178
652.964	5661.14084
653.163	5767.31367
653.362	5746.50031
653.561	5788.12468
653.76	5677.79946
653.959	5713.19402
654.158	5504.89287
654.357	5825.57854
654.556	5581.99177
654.755	5796.44842
654.954	5756.90729
655.153	5646.56331
655.352	5577.82509
655.551	5725.68458
655.749	5858.86444
655.948	5729.84792
656.147	5754.82594
656.346	5975.31753
656.545	5935.81495
656.743	6035.59454
656.942	6037.6727
657.141	6232.91515
657.34	5783.96266
657.538	6031.43814
657.737	5885.90478
657.936	6122.85717
658.135	5879.66506
658.333	5890.06448
658.532	5704.8665
658.731	5879.66506
658.929	5600.74068
659.128	5869.26504
659.326	5731.92955
659.525	6102.08412
659.724	5758.98861
659.922	6035.59454
660.121	5675.71722
660.319	5991.94765
660.518	5796.44842
660.716	6108.31628
660.915	5964.92294
661.113	6228.76322
661.312	5975.31753
661.51	6070.92013
661.709	5725.68458
661.907	6066.76453
662.105	5890.06448
662.304	6131.16574
662.502	5919.17974
662.701	6050.14119
662.899	5846.38293
663.097	6108.31628
663.296	5850.54353
663.494	6102.08412
663.692	5933.73563
663.891	6083.38636
664.089	5969.08084
664.287	6398.91581
664.485	5875.50512
664.684	6224.61119
664.882	6029.3599
665.08	5964.92294
665.278	6008.57626
665.476	6309.70905
665.675	6299.33337
665.873	6330.45866
666.071	6127.0115
666.269	6266.12726
666.467	6037.6727
666.665	6307.63396
666.863	5975.31753
667.061	6291.0324
667.259	5975.31753
667.457	6187.23871
667.655	6083.38636
667.853	6172.70292
668.051	5754.82594
668.249	6216.30685
668.447	5865.10487
668.645	5952.44865
668.843	6068.84234
669.041	6060.53095
669.239	5958.6859
669.437	6112.47094
669.635	5944.13199
669.833	6214.23071
670.031	6045.98512
670.229	6143.62788
670.426	6230.8392
670.624	6361.5787
670.822	6330.45866
671.02	6203.84964
671.218	6168.54962
671.415	6170.62628
671.613	6199.69705
671.811	6344.982
672.009	6469.42089
672.206	6353.28053
672.404	6241.21874
672.602	6340.83259
672.799	6320.08415
672.997	6286.88178
673.195	6291.0324
673.392	6318.00917
673.59	6224.61119
673.788	6224.61119
673.985	6008.57626
674.183	6307.63396
674.38	6137.39691
674.578	6374.02524
674.775	5908.78196
674.973	6291.0324
675.17	6203.84964
675.368	6178.93268
675.565	6116.6255
675.763	6384.39672
675.96	6135.31988
676.158	6415.50766
676.355	5985.71153
676.553	6255.74912
676.75	5921.25922
676.947	6498.44458
677.145	6035.59454
677.342	6326.30893
677.539	6021.04673
677.737	6386.47095
677.934	6075.07563
678.131	6357.42966
678.329	6122.85717
678.526	6116.6255
678.723	6156.08917
678.92	6473.56741
679.118	5925.41812
679.315	6432.09802
679.512	6378.1739
679.709	6444.53982
679.906	6251.5977
680.104	6392.69349
680.301	6048.06317
680.498	6332.53349
680.695	6332.53349
680.892	6299.33337
681.089	6008.57626
681.286	6361.5787
681.483	6077.15335
681.68	6492.2256
681.877	6224.61119
682.075	6351.20594
682.272	6122.85717
682.469	6498.44458
682.665	5912.94114
682.862	6251.5977
683.059	6039.75084
683.256	6191.39158
683.453	6058.45305
683.65	6282.73106
683.847	6210.07835
684.044	6467.3476
684.241	6199.69705
684.438	6274.42935
684.635	6185.16224
684.831	6133.24282
685.028	6056.37512
685.225	6133.24282
685.422	6002.34071
685.619	6322.1591
685.815	6110.39362
686.012	6413.43376
686.209	6029.3599
686.405	6299.33337
686.602	6212.15454
686.799	6212.15454
686.996	6060.53095
687.192	6145.70482
687.389	5875.50512
687.586	6154.01235
687.782	5969.08084
687.979	6299.33337
688.175	5967.0019
688.372	6199.69705
688.568	5817.25612
688.765	6212.15454
688.962	6010.65473
689.158	6278.58025
689.355	6158.16597
689.551	6363.65318
689.748	6137.39691
689.944	6195.54436
690.14	6149.85863
690.337	6185.16224
690.533	6490.15256
690.73	6357.42966
690.926	6102.08412
691.123	6077.15335
691.319	5977.39638
691.515	6253.67342
691.712	5950.36952
691.908	6166.47294
692.104	5983.63278
692.301	6320.08415
692.497	6181.00923
692.693	6116.6255
692.889	6068.84234
693.086	6087.54158
693.282	6012.73318
693.478	5952.44865
693.674	5954.52776
693.87	5991.94765
694.067	5952.44865
694.263	6183.08574
694.459	5792.28659
694.655	5985.71153
694.851	5808.93332
695.047	5975.31753
695.243	5842.22224
695.439	6070.92013
695.635	6085.46398
695.831	5908.78196
696.027	5912.94114
696.224	6145.70482
696.42	6062.60884
696.615	6264.05168
696.811	6112.47094
697.007	6357.42966
697.203	5921.25922
697.399	6232.91515
697.595	5890.06448
697.791	5902.54301
697.987	5927.49753
698.183	6232.91515
698.379	5969.08084
698.575	6139.47392
698.77	5827.65908
698.966	6091.69671
699.162	5950.36952
699.358	6143.62788
699.554	6110.39362
699.749	6251.5977
699.945	5960.76494
700.141	5933.73563
700.337	5821.41737
700.532	6043.90705
700.728	5792.28659
700.924	5921.25922
701.119	5629.90185
701.315	5981.554
701.511	5817.25612
701.706	6199.69705
701.902	6041.82896
702.097	6041.82896
702.293	5896.30385
702.489	6301.40855
702.684	5929.57692
702.88	6021.04673
703.075	5858.86444
703.271	6110.39362
703.466	5987.79026
703.662	6079.23104
703.857	5860.94461
704.053	6120.77997
704.248	5908.78196
704.443	6116.6255
704.639	6023.12506
704.834	6149.85863
705.03	5894.22409
705.225	6118.70275
705.42	6108.31628
705.616	6006.49776
705.811	5771.47606
706.006	5964.92294
706.202	6033.51635
706.397	6054.29717
706.592	5902.54301
706.787	5867.18497
706.983	5663.22325
707.178	6027.28164
707.373	5910.86156
707.568	6164.39623
707.763	5813.09477
707.959	6340.83259
708.154	6012.73318
708.349	6072.99789
708.544	6033.51635
708.739	6075.07563
708.934	5721.52116
709.129	5867.18497
709.324	5802.69098
709.519	6143.62788
709.714	5960.76494
709.909	6060.53095
710.104	5865.10487
710.299	5883.8249
710.494	5979.4752
710.689	6083.38636
710.884	5871.34509
711.079	5935.81495
711.274	5719.43941
711.469	6170.62628
711.664	5935.81495
711.859	6342.90731
712.054	6052.21919
712.249	5935.81495
712.443	5919.17974
712.638	5991.94765
712.833	5604.90685
713.028	6093.77424
713.223	5908.78196
713.417	6268.20281
713.612	5991.94765
713.807	6270.27835
714.002	5865.10487
714.196	6120.77997
714.391	5904.62269
714.586	5881.74499
714.78	5869.26504
714.975	5912.94114
715.17	5981.554
715.364	6000.26214
715.559	5854.70403
715.754	5942.05276
715.948	5815.17545
716.143	5939.97351
716.337	5769.39488
716.532	6093.77424
716.726	5858.86444
716.921	5896.30385
717.115	5573.65831
717.31	5890.06448
717.504	5798.52929
717.699	5844.3026
717.893	5925.41812
718.088	5806.85256
718.282	5767.31367
718.476	6127.0115
718.671	5663.22325
718.865	5779.80056
719.059	5863.02475
719.254	6029.3599
719.448	5736.09274
719.642	6048.06317
719.837	5656.97595
720.031	5871.34509
720.225	5642.39809
720.419	5798.52929
720.614	5634.06736
720.808	5831.8201
721.002	5686.1282
721.196	5838.06146
721.39	5798.52929
721.585	5769.39488
721.779	5525.73359
721.973	5804.77178
722.167	5335.99636
722.361	5681.96388
722.555	5827.65908
722.749	5873.42512
722.943	5602.82378
723.137	5688.21033
723.331	5588.24162
723.525	5896.30385
723.719	5729.84792
723.913	6041.82896
724.107	5640.31544
724.301	5675.71722
724.495	5417.33614
724.689	5817.25612
724.883	5546.57196
725.077	5779.80056
725.271	5702.78456
725.465	5642.39809
725.659	5448.61117
725.853	5667.388
726.046	5642.39809
726.24	5706.94841
726.434	5477.79641
726.628	5919.17974
726.822	5413.16574
727.015	5552.82301
727.209	5446.52633
727.403	5679.88168
727.596	5648.64588
727.79	5636.15008
727.984	5404.82466
728.177	5738.1743
728.371	5506.97705
728.565	5594.49126
728.758	5584.07508
728.952	5756.90729
729.146	5609.07292
729.339	5833.90058
729.533	5554.90664
729.726	5734.01116
729.92	5467.37364
730.113	5769.39488
730.307	5413.16574
730.5	5575.74171
730.694	5636.15008
730.887	5569.49144
731.081	5663.22325
731.274	5642.39809
731.468	5540.3207
731.661	5912.94114
731.854	5588.24162
732.048	5546.57196
732.241	5684.04605
732.435	5661.14084
732.628	5646.56331
732.821	5627.81907
733.014	5667.388
733.208	5638.23277
733.401	5492.38731
733.594	5529.90145
733.788	5467.37364
733.981	5652.81096
734.174	5671.55265
734.367	5896.30385
734.56	5987.79026
734.754	5950.36952
734.947	5727.76626
735.14	5863.02475
735.333	5663.22325
735.526	5627.81907
735.719	5575.74171
735.912	5513.22944
736.105	5559.07385
736.298	5659.05841
736.491	5631.98462
736.684	5600.74068
736.877	5667.388
737.07	5571.57489
737.263	5734.01116
737.456	5817.25612
737.649	5646.56331
737.842	5723.60288
738.035	5690.29244
738.228	5634.06736
738.421	5586.15836
738.614	5692.37451
738.807	5598.65756
739	5567.40797
739.192	5477.79641
739.385	5540.3207
739.578	5509.0612
739.771	5577.82509
739.964	5554.90664
740.156	5704.8665
740.349	5471.54282
740.542	5515.31353
740.735	5461.11969
740.927	5408.99525
741.12	5208.70115
741.313	5421.50645
741.505	5492.38731
741.698	5667.388
741.891	5636.15008
742.083	5692.37451
742.276	5898.3836
742.468	5617.40478
742.661	5663.22325
742.854	5609.07292
743.046	5538.23689
743.239	5577.82509
743.431	5738.1743
743.624	5534.06922
743.816	5611.15592
744.009	5588.24162
744.201	5490.30296
744.393	5294.26982
744.586	5371.45655
744.778	5484.04979
744.971	5319.30687
745.163	5521.56564
745.355	5525.73359
745.548	5461.11969
745.74	5325.5656
745.932	5492.38731
746.125	5288.01003
746.317	5498.64019
746.509	5319.30687
746.702	5648.64588
746.894	5459.035
747.086	5531.98535
747.278	5642.39809
747.471	5648.64588
747.663	5434.01681
747.855	5821.41737
748.047	5442.35658
748.239	5490.30296
748.431	5225.40056
748.623	5473.62737
748.815	5325.5656
749.008	5506.97705
749.2	5279.66331
749.392	5550.73935
749.584	5542.40447
749.776	5692.37451
749.968	5427.76174
750.16	5592.40807
750.352	5404.82466
750.544	5452.78077
750.736	5467.37364
750.928	5519.48162
751.12	5267.14254
751.311	5471.54282
751.503	5350.59844
751.695	5271.31623
751.887	5093.85237
752.079	5436.10179
752.271	5294.26982
752.463	5404.82466
752.654	5358.94196
752.846	5448.61117
753.038	5438.18675
753.23	5509.0612
753.421	5294.26982
753.613	5310.96156
753.805	5402.73933
753.997	5423.59157
754.188	5267.14254
754.38	5346.42653
754.572	5114.7392
754.763	5194.08794
754.955	5198.26326
755.146	5244.18561
755.338	5260.88184
755.53	5609.07292
755.721	5233.7497
755.913	5404.82466
756.104	5154.41777
756.296	5256.70792
756.487	5110.56202
756.679	5348.5125
756.87	5085.49699
757.062	5277.57658
757.253	5192.00025
757.445	5434.01681
757.636	5300.52939
757.827	5129.3586
758.019	5026.99896
758.21	5375.62789
758.401	5221.22585
758.593	5250.44687
758.784	5310.96156
758.975	5093.85237
759.167	5177.38574
759.358	5202.43849
759.549	5129.3586
759.74	5279.66331
759.932	5006.10241
760.123	4962.21214
760.314	4976.84336
760.505	5085.49699
760.696	4949.6702
760.888	5108.4734
761.079	4872.30998
761.27	4960.12188
761.461	4876.49242
761.652	4951.76059
761.843	5016.55097
762.034	4935.0369
762.225	4838.8472
762.416	5212.87614
762.607	4949.6702
762.798	5072.96323
762.989	4886.9481
763.18	5033.26747
763.371	4951.76059
763.562	4776.08878
763.753	4886.9481
763.944	4893.22124
764.135	4767.71944
764.326	5077.14124
764.517	4895.31224
764.708	4878.5836
764.899	4930.85574
765.089	4928.76513
765.28	4882.7659
765.471	5100.11866
765.662	4763.53464
765.853	4882.7659
766.043	4807.47055
766.234	5077.14124
766.425	4901.58511
766.615	4832.57228
766.806	4771.90415
766.997	4771.90415
767.187	4702.84481
767.378	4782.36554
767.569	4665.16572
767.759	4826.29716
767.95	4725.86733
768.141	5045.80387
768.331	4780.27331
768.522	4964.30239
768.712	4715.40289
768.903	4924.58384
769.093	4773.99648
769.284	4776.08878
769.474	4581.40839
769.665	4725.86733
769.855	4652.60441
770.046	4700.75172
770.236	4600.25691
770.426	4648.41712
770.617	4566.74719
770.807	4684.00618
770.998	4552.08489
771.188	4780.27331
771.378	4809.56249
771.569	4746.79452
771.759	4430.55563
771.949	4363.47342
772.139	4583.50276
772.33	4485.04344
772.52	4478.75714
772.71	4619.10362
772.9	4388.63187
773.09	4566.74719
773.281	4361.37674
773.471	4644.22975
773.661	4459.89706
773.851	4373.95649
774.041	4172.58765
774.231	4199.86786
774.421	4143.20497
774.611	4526.947
774.802	4363.47342
774.992	4491.32954
775.182	4434.74753
775.372	4577.21959
775.562	4455.7057
775.752	4518.567
775.942	4407.49864
776.131	4254.41753
776.321	4145.30387
776.511	4417.97942
776.701	4436.84344
776.891	4468.27954
777.081	4294.27162
777.271	4256.51531
777.461	4130.61113
777.651	4422.17158
777.84	4105.4212
778.03	4099.12324
778.22	4210.3593
778.41	4407.49864
778.599	4170.48902
778.789	4246.02621
778.979	4153.69926
779.169	4204.0645
779.358	4199.86786
779.548	4386.53545
779.738	3983.62772
779.927	4189.3759
780.117	4103.3219
780.307	4097.02388
780.496	3962.62186
780.686	4254.41753
780.875	4073.92955
781.065	4210.3593
781.254	3996.23025
781.444	4187.27744
781.633	4153.69926
781.823	4325.7299
782.012	3859.66391
782.202	4187.27744
782.391	3863.86722
782.581	4084.42729
782.77	4027.73337
782.96	4082.32778
783.149	3718.80754
783.338	3783.99083
783.528	3899.59211
783.717	3952.11816
783.906	3914.30068
784.096	4210.3593
784.285	4099.12324
784.474	4086.52677
784.663	4065.53099
784.853	4071.82994
785.042	3899.59211
785.231	4124.31393
785.42	3922.70513
785.61	3987.82864
785.799	3870.17203
785.988	3977.32617
786.177	4004.63154
786.366	3933.21024
786.555	3830.23853
786.744	4065.53099
786.933	3790.29789
787.122	4120.11569
787.312	3960.52116
787.501	4153.69926
787.69	3935.3112
787.879	3985.72819
788.068	3886.98399
788.257	3952.11816
788.445	3573.65605
788.634	3767.17112
788.823	3800.80928
789.012	3718.80754
789.201	3945.81571
789.39	3922.70513
789.579	3556.8211
789.768	3762.966
789.957	3539.98497
790.145	3744.04199
790.334	3723.01347
790.523	3821.83057
790.712	3666.22685
790.9	3563.13434
791.089	3691.46708
791.278	3626.25757
791.467	3624.15373
791.655	3662.01988
791.844	3565.23872
792.033	3573.65605
792.221	3561.02995
792.41	3640.98389
792.599	3280.98459
792.787	3657.81284
792.976	3674.64057
793.164	3710.39543
793.353	3611.53032
793.541	3678.84731
793.73	3531.56646
793.918	3603.11434
794.107	3430.52164
794.295	3512.62374
794.484	3464.20788
794.672	3472.62872
794.861	3422.09937
795.049	3459.99735
795.238	3459.99735
795.426	3628.36138
795.614	3413.67681
795.803	3647.29489
795.991	3548.40318
796.179	3666.22685
796.368	3363.13553
796.556	3575.76033
796.744	3211.45205
796.932	3474.73388
797.121	3177.73279
797.309	3548.40318
797.497	3158.76387
797.685	3401.04244
797.874	3443.15452
798.062	3415.78248
798.25	3356.81716
798.438	3586.28148
798.626	3329.43575
798.814	3226.2029
799.002	3234.63159
799.19	3373.6658
799.378	3312.5842
799.566	3396.83085
799.755	3150.33281
799.943	3405.25397
800.131	3339.96741
800.318	3331.54212
800.506	3129.25404
800.694	3491.57455
800.882	3221.98846
801.07	3518.93815
801.258	3348.39243
801.446	3226.2029
801.634	3255.70214
801.822	3289.41153
802.01	3169.30232
802.197	3472.62872
802.385	3295.73155
802.573	3329.43575
802.761	3278.87781
802.949	3447.36533
803.136	3217.77395
803.324	3607.32237
803.512	3369.45375
803.699	3156.65613
803.887	3070.225
804.075	3295.73155
804.262	3122.9301
804.45	3365.24162
804.638	3304.15801
804.825	3472.62872
805.013	3135.57784
805.201	3632.56896
805.388	3221.98846
805.576	3388.40744
805.763	3377.87779
805.951	3459.99735
806.138	3472.62872
806.326	3510.51891
806.513	3116.60601
806.701	3150.33281
806.888	3217.77395
807.075	3514.72856
807.263	3274.6642
807.45	3539.98497
807.638	3125.0381
807.825	3325.22297
808.012	3192.48549
808.2	3287.30482
808.387	3177.73279
808.574	3510.51891
808.761	3295.73155
808.949	3489.46953
809.136	3247.27412
809.323	3592.59394
809.51	3329.43575
809.698	3472.62872
809.885	3230.41728
810.072	3441.04908
810.259	3186.163
810.446	3342.07369
810.633	3221.98846
810.82	3325.22297
811.008	3382.0897
811.195	3704.08615
811.382	3405.25397
811.569	3561.02995
811.756	3371.55978
811.943	3577.8646
812.13	3506.30918
812.317	3714.60152
812.504	3464.20788
812.691	3649.39851
812.878	3514.72856
813.064	3556.8211
813.251	3403.14822
813.438	3539.98497
813.625	3306.26459
813.812	3398.93665
813.999	3337.86111
814.186	3655.70928
814.372	3455.78675
814.559	3613.63427
814.746	3489.46953
814.933	3466.31311
815.12	3312.5842
815.306	3535.77575
815.493	3367.34769
815.68	3487.36449
815.866	3464.20788
816.053	3390.51332
816.24	3390.51332
816.426	3331.54212
816.613	3352.60483
816.799	3550.50769
816.986	3321.01011
817.173	3377.87779
817.359	3253.59516
817.546	3455.78675
817.732	3333.64847
817.919	3535.77575
818.105	3304.15801
818.292	3419.99376
818.478	3426.31054
818.665	3405.25397
818.851	3497.8895
819.037	3518.93815
819.224	3144.00935
819.41	3401.04244
819.597	3247.27412
819.783	3443.15452
819.969	3295.73155
820.156	3497.8895
820.342	3470.52353
820.528	3384.19563
820.714	3150.33281
820.901	3344.17995
821.087	3019.6189
821.273	3468.41833
821.459	3280.98459
821.646	3535.77575
821.832	3228.3101
822.018	3426.31054
822.204	3215.66666
822.39	3525.25239
822.576	3411.57113
822.762	3434.73267
822.948	3268.34367
823.134	3215.66666
823.32	3255.70214
823.507	3295.73155
823.693	3148.22501
823.879	3335.7548
824.065	3190.37801
824.25	3337.86111
824.436	3278.87781
824.622	3371.55978
824.808	3196.7004
824.994	3249.38115
825.18	2931.03714
825.366	3291.51822
825.552	3021.72767
825.738	3228.3101
825.923	3000.63933
826.109	3337.86111
826.295	3177.73279
826.481	3146.11719
826.667	2958.45813
826.852	3240.95293
827.038	3099.74107
827.224	3291.51822
827.409	3160.87159
827.595	3118.71405
827.781	2996.42148
827.966	3274.6642
828.152	3038.59723
828.338	3025.94515
828.523	3059.6828
828.709	3074.44177
828.894	3066.00817
829.08	3057.57431
829.266	2943.69329
829.451	3030.16257
829.637	3034.37993
829.822	3076.55013
830.008	2998.53042
830.193	3186.163
830.378	3040.70586
830.564	3367.34769
830.749	2924.70887
830.935	2998.53042
831.12	2692.58462
831.305	2928.92773
831.491	2724.24759
831.676	3000.63933
831.861	2779.12305
832.047	2874.07798
832.232	3110.28178
832.417	2890.95586
832.602	2798.11628
832.788	2933.14654
832.973	2802.33685
833.158	2890.95586
833.343	2675.6965
833.528	3122.9301
833.714	2848.75943
833.899	2899.39446
834.084	2675.6965
834.269	2817.1084
834.454	2696.80651
834.639	2867.74853
834.824	2608.13598
835.009	2844.53948
835.194	2595.46698
835.379	2791.78533
835.564	2589.13231
835.749	2935.25592
835.934	2675.6965
836.119	2696.80651
836.304	2519.44393
836.489	2747.46523
836.674	2614.47032
836.859	2760.12872
837.044	2589.13231
837.228	2741.13331
837.413	2616.58174
837.598	2739.02264
837.783	2447.63073
837.968	2660.91874
838.152	2574.351
838.337	2631.36135
838.522	2396.93148
838.707	2574.351
838.891	2620.80455
839.076	2755.90761
839.261	2755.90761
839.445	2874.07798
839.63	2743.24396
839.815	2595.46698
839.999	2437.06889
840.184	2536.33925
840.368	2356.79032
840.553	2557.45736
840.737	2386.36838
840.922	2629.25002
841.106	2384.25572
841.291	2530.00359
841.475	2301.85449
841.66	2510.99599
841.844	2287.06296
842.029	2411.71939
842.213	2384.25572
842.397	2312.41958
842.582	2310.30659
842.766	2477.20243
842.951	2149.69209
843.135	2538.45111
843.319	2238.45904
843.504	2445.51838
843.688	2350.45191
843.872	2580.68592
844.056	2158.14672
844.241	2595.46698
844.425	2282.83673
844.609	2460.30458
844.793	2337.77482
844.977	2508.88397
845.161	2308.19358
845.346	2310.30659
845.53	2160.26036
845.714	2489.87535
845.898	2244.79895
846.082	2187.73689
846.266	2320.87149
846.45	2219.43882
846.634	2350.45191
846.818	2234.23239
847.002	2223.6656
847.186	2299.74145
847.37	2282.83673
847.554	2342.00056
847.738	2071.48087
847.922	2065.13897
848.106	1940.40265
848.29	2024.97215
848.473	2096.84781
848.657	2230.0057
848.841	2063.02499
849.025	2113.7585
849.209	1986.91712
849.392	1995.37398
849.576	1982.68866
849.76	2151.80576
849.944	1910.80105
850.127	2166.60122
850.311	1910.80105
850.495	2029.20035
850.678	2084.16447
850.862	2172.94201
851.046	1970.00311
851.229	2046.11289
851.413	1910.80105
851.596	2088.39228
851.78	1821.99003
851.964	2041.8848
852.147	1828.33396
852.331	1902.34325
852.514	1817.76072
852.698	1860.05297
852.881	1769.12244
853.065	1919.25876
853.248	1912.91549
853.431	1967.88883
853.615	1853.70926
853.798	2094.73394
853.982	1847.3655
854.165	1912.91549
854.348	1709.90787
854.532	1942.51701
854.715	1676.06981
854.898	2014.40152
855.081	1540.71144
855.265	1847.3655
855.448	1712.02272
855.631	1705.67815
855.814	1640.11608
855.997	1800.84331
856.181	1591.47174
856.364	1902.34325
856.547	1767.00769
856.73	1792.3845
856.913	1659.1505
857.096	1957.31734
857.279	1589.35675
857.462	1764.89292
857.645	1652.80572
857.828	1665.49526
858.011	1547.05652
858.194	1682.4145
858.377	1625.3114
858.56	1654.92065
858.743	1487.83544
858.926	1599.9317
859.109	1680.29961
859.292	1538.59641
859.475	1422.26885
859.658	1616.85154
859.841	1496.29563
860.023	1676.06981
860.206	1508.9859
860.389	1692.98893
860.572	1517.44607
860.755	1574.55174
860.937	1481.4903
861.12	1610.50661
861.303	1481.4903
861.486	1606.27666
861.668	1538.59641
861.851	1508.9859
862.034	1367.27778
862.216	1547.05652
862.399	1428.614
862.581	1475.14515
862.764	1445.53442
862.947	1481.4903
863.129	1441.30431
863.312	1576.66675
863.494	1382.08301
863.677	1610.50661
863.859	1441.30431
864.042	1462.45484
864.224	1460.33978
864.406	1437.07421
864.589	1242.49396
864.771	1462.45484
864.954	1134.63772
865.136	1420.1538
865.318	1263.64323
865.501	1305.9425
865.683	1295.3676
865.865	1422.26885
866.048	1272.10301
866.23	1322.86244
866.412	1278.44787
866.594	1384.19805
866.777	1225.57474
866.959	1392.65821
867.141	1219.23009
867.323	1371.50784
867.505	1253.06856
867.687	1377.85294
867.869	1145.21142
868.052	1403.23343
868.234	1225.57474
868.416	1449.76452
868.598	1320.74745
868.78	1293.25263
868.962	1174.81834
869.144	1411.69361
869.326	1160.01479
869.508	1274.21796
869.69	1009.87733
869.872	1394.77325
870.054	1200.1963
870.236	1394.77325
870.417	1246.72379
870.599	1157.90001
870.781	1130.40827
870.963	1250.95363
871.145	1073.31252
871.327	1234.03433
871.508	988.73347
871.69	1204.426
871.872	1043.70879
872.054	1172.70354
872.235	1022.56395
872.417	1153.67046
872.599	1066.96877
872.78	1147.32618
872.962	1054.28143
873.144	1261.52829
873.325	1124.06413
873.507	1155.78523
873.689	1066.96877
873.87	1297.48258
874.052	1064.8542
874.233	1090.22941
874.415	1100.80262
874.596	1240.37905
874.778	1069.08335
874.959	1176.93315
875.141	946.44774
875.322	1018.33505
875.503	976.04747
875.685	1121.94942
875.866	1020.4495
876.048	1170.58874
876.229	1056.39597
876.41	1126.17884
876.592	980.27611
876.773	1238.26414
876.954	1022.56395
877.136	1278.44787
877.317	1153.67046
877.498	1168.47394
877.679	1047.93783
877.86	1124.06413
878.042	959.13317
878.223	1153.67046
878.404	1016.22061
878.585	1086.00015
878.766	1064.8542
878.947	1244.60887
879.128	1174.81834
879.309	1320.74745
879.49	1094.45868
879.672	1305.9425
879.853	1168.47394
880.034	1291.13766
880.215	1054.28143
880.396	1244.60887
880.576	1073.31252
880.757	1276.33291
880.938	988.73347
881.119	1238.26414
881.3	1035.25078
881.481	1282.67779
881.662	1242.49396
881.843	1092.34404
882.023	1132.52299
882.204	1242.49396
882.385	1073.31252
882.566	1130.40827
882.747	1058.51052
882.927	1310.17248
883.108	1107.14661
883.289	1157.90001
883.469	1208.65573
883.65	1295.3676
883.831	1168.47394
884.011	1202.31115
884.192	1195.9666
884.373	1191.73692
884.553	1079.65631
884.734	1269.98806
884.914	1208.65573
885.095	1250.95363
885.275	1022.56395
885.456	1208.65573
885.636	1151.5557
885.817	1181.16278
885.997	1056.39597
886.178	1308.05749
886.358	1086.00015
886.538	1261.52829
886.719	1181.16278
886.899	1276.33291
887.08	1246.72379
887.26	1244.60887
887.44	1071.19793
887.621	1191.73692
887.801	1094.45868
887.981	1140.98193
888.161	1250.95363
888.342	1327.09245
888.522	1187.50725
888.702	1284.79275
888.882	1206.54086
889.062	1179.04797
889.242	1231.91943
889.423	1234.03433
889.603	1083.88554
889.783	1236.14923
889.963	1083.88554
890.143	1242.49396
890.323	986.61912
890.503	1204.426
890.683	1157.90001
890.863	1344.01253
891.043	1098.68797
891.223	1227.68963
891.403	1215.00033
891.583	1282.67779
891.763	1132.52299
891.943	1295.3676
892.122	1077.54171
892.302	1267.87311
892.482	1052.16689
892.662	1225.57474
892.842	997.19094
893.022	1185.39243
893.201	883.02463
893.381	1066.96877
893.561	1009.87733
893.741	1297.48258
893.92	1083.88554
894.1	1238.26414
894.28	1071.19793
894.459	1132.52299
894.639	1124.06413
894.819	1098.68797
894.998	1016.22061
895.178	1115.60533
895.357	1058.51052
895.537	1272.10301
895.716	1113.49065
895.896	1100.80262
896.075	1081.77092
896.255	1018.33505
896.434	925.30594
896.614	1238.26414
896.793	1102.91728
896.973	1086.00015
897.152	921.07767
897.331	1064.8542
897.511	872.4548
897.69	1024.67841
897.87	1022.56395
898.049	1058.51052
898.228	859.77128
898.407	1009.87733
898.587	933.76257
898.766	1007.76292
898.945	916.84943
899.124	878.79667
899.304	823.83634
899.483	997.19094
899.662	895.70869
899.841	957.01892
900.02	889.36662
900.199	912.62122
900.378	781.56332
900.557	1011.99175
900.737	902.05083
900.916	959.13317
901.095	861.88518
901.274	838.63277
901.453	718.16124
901.632	868.22692
901.811	766.76868
901.989	785.79045
902.168	743.52096
902.347	840.74658
902.526	635.75326
902.705	880.91064
902.884	718.16124
903.063	802.69936
903.242	665.33358
903.42	781.56332
903.599	667.44655
903.778	694.9162
903.957	627.30218
904.135	798.47207
904.314	530.12951
904.493	599.83753
904.672	608.28796
904.85	777.33623
905.029	492.11332
905.207	601.95012
905.386	599.83753
905.565	654.76892
905.743	667.44655
905.922	644.20454
906.1	458.32515
906.279	675.89855
906.457	519.56899
906.636	566.03788
906.814	456.21352
906.993	557.58849
907.171	485.77775
907.35	568.15026
907.528	407.65029
907.707	481.5541
907.885	413.98415
908.063	483.66592
908.242	456.21352
908.42	443.54405
908.598	333.76638
908.777	498.44903
908.955	394.98302
909.133	599.83753
909.311	375.98323
909.49	475.21875
909.668	382.31634
909.846	515.34488
910.024	411.87285
910.202	388.64961
910.38	447.76714
910.559	416.09547
910.737	413.98415
910.915	483.66592
911.093	460.4368
911.271	490.00145
911.449	392.87187
911.627	481.5541
911.805	371.76124
911.983	483.66592
912.161	418.2068
912.339	528.01738
912.517	418.2068
912.695	534.35382
912.872	382.31634
913.05	504.78487
913.228	426.6523
913.406	521.68107
913.584	445.65559
913.762	475.21875
913.939	409.76156
914.117	500.56096
914.295	477.33052
914.473	502.6729
914.65	477.33052
914.828	426.6523
915.006	441.43252
915.184	451.9903
915.361	418.2068
915.539	430.87514
915.716	413.98415
915.894	544.91483
916.072	437.20952
916.249	388.64961
916.427	378.09425
916.604	502.6729
916.782	329.54508
916.959	363.31745
917.137	432.98659
917.314	409.76156
917.492	422.42952
917.669	439.32102
917.847	331.65572
918.024	485.77775
918.201	371.76124
918.379	464.66014
918.556	359.09566
918.733	456.21352
918.911	346.43071
919.088	369.65026
919.265	306.32919
919.442	378.09425
919.62	354.87394
919.797	458.32515
919.974	297.88759
920.151	350.65229
920.328	401.31658
920.506	441.43252
920.683	234.58507
920.86	340.09847
921.037	308.43963
921.214	384.42741
921.391	236.69488
921.568	321.10269
921.745	333.76638
921.922	219.81696
922.099	316.8816
922.276	331.65572
922.453	295.77723
922.63	392.87187
922.807	278.89506
922.984	388.64961
923.161	205.04983
923.338	390.76073
923.514	308.43963
923.691	329.54508
923.868	329.54508
924.045	348.54149
924.222	257.79401
924.399	384.42741
924.575	245.1343
924.752	308.43963
924.929	232.47528
925.105	249.35413
925.282	179.73703
925.459	173.40929
925.635	297.88759
925.812	228.25576
925.989	190.28367
926.165	259.90403
926.342	238.8047
926.518	321.10269
926.695	257.79401
926.871	211.37848
927.048	251.46407
927.224	283.11549
927.401	196.6119
927.577	299.99796
927.754	143.8823
927.93	196.6119
928.107	236.69488
928.283	240.91455
928.459	205.04983
928.636	251.46407
928.812	205.04983
928.988	198.72135
929.165	162.86346
929.341	139.6645
929.517	202.94032
929.693	196.6119
929.87	131.22915
930.046	173.40929
930.222	226.14603
930.398	186.06495
930.574	177.62776
930.751	196.6119
930.927	152.31817
931.103	154.42718
931.279	110.14229
931.455	236.69488
931.631	105.92518
931.807	160.75436
931.983	148.10019
932.159	243.02442
932.335	198.72135
932.511	196.6119
932.687	150.20917
932.863	164.97259
933.039	143.8823
933.215	95.38278
933.391	105.92518
933.566	179.73703
933.742	93.27437
933.918	143.8823
934.094	63.75895
934.27	118.57677
934.445	89.05761
934.621	103.81665
934.797	86.94927
934.973	120.68545
935.148	131.22915
935.324	67.97517
935.5	44.78711
935.675	148.10019
935.851	65.86705
936.027	84.84094
936.202	118.57677
936.378	101.70815
936.553	74.29967
936.729	127.01161
936.904	61.65088
937.08	59.54283
937.255	25.81715
937.431	110.14229
937.606	139.6645
937.782	101.70815
937.957	8.95656
938.133	67.97517
938.308	129.12037
938.483	34.24801
938.659	59.54283
938.834	25.81715
939.009	44.78711
939.185	93.27437
939.36	55.32679
939.535	55.32679
939.71	-18.43861
939.886	21.60186
940.061	0.52684
940.236	53.21881
940.411	76.40788
940.586	25.81715
940.761	-18.43861
940.937	-3.68787
941.112	86.94927
941.287	23.70949
941.462	93.27437
941.637	133.33796
941.812	46.895
941.987	25.81715
942.162	38.46358
942.337	-3.68787
942.512	-7.90249
942.687	4.74166
942.862	70.08331
943.037	40.5714
943.212	17.38667
943.386	-54.2568
943.561	53.21881
943.736	-12.11701
943.911	-12.11701
944.086	38.46358
944.26	103.81665
944.435	44.78711
944.61	76.40788
944.785	2.63424
944.959	38.46358
945.134	-1.58052
945.309	44.78711
945.483	-12.11701
945.658	-33.18815
945.833	61.65088
946.007	-14.22423
946.182	61.65088
946.357	23.70949
946.531	25.81715
946.706	-35.29512
946.88	67.97517
947.055	-28.97412
947.229	59.54283
947.404	-16.33143
947.578	51.11085
947.752	76.40788
947.927	-39.50901
948.101	13.17157
948.276	-43.72279
948.45	32.14026
948.624	-16.33143
948.799	8.95656
948.973	23.70949
949.147	-18.43861
949.321	-14.22423
949.496	-26.86706
949.67	76.40788
949.844	-1.58052
950.018	-3.68787
950.193	44.78711
950.367	-16.33143
950.541	30.03253
950.715	42.67924
950.889	8.95656
951.063	-1.58052
951.237	53.21881
951.411	27.92483
951.585	108.03372
951.759	57.4348
951.933	19.49425
952.107	25.81715
952.281	13.17157
952.455	36.35578
952.629	27.92483
952.803	19.49425
952.977	44.78711
953.151	-31.08114
953.325	17.38667
953.499	53.21881
953.672	61.65088
953.846	59.54283
954.02	-7.90249
954.194	0.52684
954.368	44.78711
954.541	95.38278
954.715	44.78711
954.889	23.70949
955.062	-24.75999
955.236	-54.2568
955.41	4.74166
955.583	25.81715
955.757	78.51611
955.93	-7.90249
956.104	21.60186
956.278	72.19148
956.451	72.19148
956.625	38.46358
956.798	57.4348
956.972	44.78711
957.145	103.81665
957.319	38.46358
957.492	-3.68787
957.665	2.63424
957.839	19.49425
958.012	49.00291
958.185	34.24801
958.359	78.51611
958.532	82.73264
958.705	-3.68787
958.879	15.2791
959.052	11.06405
959.225	8.95656
959.398	-22.65289
959.572	70.08331
959.745	6.8491
959.918	74.29967
960.091	72.19148
960.264	11.06405
960.438	11.06405
960.611	46.895
960.784	40.5714
960.957	74.29967
961.13	30.03253
961.303	46.895
961.476	17.38667
961.649	27.92483
961.822	-18.43861
961.995	55.32679
962.168	91.16598
962.341	63.75895
962.514	118.57677
962.686	63.75895
962.859	11.06405
963.032	36.35578
963.205	44.78711
963.378	74.29967
963.551	25.81715
963.723	8.95656
963.896	8.95656
964.069	-33.18815
964.242	82.73264
964.414	25.81715
964.587	42.67924
964.76	-28.97412
964.932	-7.90249
965.105	91.16598
965.278	76.40788
965.45	-22.65289
965.623	-12.11701
965.795	6.8491
965.968	-16.33143
966.14	76.40788
966.313	11.06405
966.485	-79.53586
966.658	76.40788
966.83	44.78711
967.003	34.24801
967.175	-3.68787
967.348	0.52684
967.52	-3.68787
967.692	38.46358
967.865	80.62436
968.037	57.4348
968.209	-26.86706
968.382	-43.72279
968.554	38.46358
968.726	-7.90249
968.898	51.11085
969.071	34.24801
969.243	19.49425
969.415	17.38667
969.587	-58.47023
969.759	0.52684
969.932	89.05761
970.104	11.06405
970.276	23.70949
970.448	-41.61591
970.62	27.92483
970.792	11.06405
970.964	-3.68787
971.136	67.97517
971.308	-64.79019
971.48	38.46358
971.652	8.95656
971.824	-77.42941
971.996	61.65088
972.168	30.03253
972.339	-77.42941
972.511	61.65088
972.683	25.81715
972.855	13.17157
973.027	32.14026
973.199	-66.89679
973.37	19.49425
973.542	-50.04327
973.714	27.92483
973.886	-20.54576
974.057	46.895
974.229	42.67924
974.401	42.67924
974.572	30.03253
974.744	46.895
974.915	46.895
975.087	2.63424
975.259	13.17157
975.43	8.95656
975.602	-41.61591
975.773	15.2791
975.945	44.78711
976.116	38.46358
976.288	23.70949
976.459	-83.74867
976.63	-24.75999
976.802	95.38278
976.973	17.38667
977.145	21.60186
977.316	19.49425
977.487	19.49425
977.659	-90.0677
977.83	44.78711
978.001	-45.82964
978.172	38.46358
978.344	-37.40208
978.515	-18.43861
978.686	46.895
978.857	-7.90249
979.028	30.03253
979.2	-1.58052
979.371	17.38667
979.542	19.49425
979.713	23.70949
979.884	11.06405
980.055	78.51611
980.226	-66.89679
980.397	-39.50901
980.568	-3.68787
980.739	2.63424
980.91	32.14026
981.081	-33.18815
981.252	63.75895
981.423	0.52684
981.594	8.95656
981.765	13.17157
981.936	17.38667
982.106	-24.75999
982.277	21.60186
982.448	17.38667
982.619	-41.61591
982.79	19.49425
982.96	19.49425
983.131	25.81715
983.302	-75.32294
983.472	-12.11701
983.643	0.52684
983.814	53.21881
983.984	-50.04327
984.155	19.49425
984.326	-22.65289
984.496	84.84094
984.667	-37.40208
984.837	23.70949
985.008	86.94927
985.178	-37.40208
985.349	57.4348
985.519	38.46358
985.69	2.63424
985.86	72.19148
986.031	2.63424
986.201	21.60186
986.371	15.2791
986.542	30.03253
986.712	15.2791
986.882	32.14026
987.053	4.74166
987.223	-26.86706
987.393	4.74166
987.563	51.11085
987.734	-1.58052
987.904	72.19148
988.074	72.19148
988.244	-41.61591
988.414	-22.65289
988.585	80.62436
988.755	25.81715
988.925	51.11085
989.095	8.95656
989.265	-33.18815
989.435	38.46358
989.605	-7.90249
989.775	-16.33143
989.945	-3.68787
990.115	-16.33143
990.285	-111.12944
990.455	34.24801
990.625	-14.22423
990.795	-39.50901
990.965	53.21881
991.134	38.46358
991.304	42.67924
991.474	30.03253
991.644	-3.68787
991.814	-75.32294
991.984	-20.54576
992.153	-33.18815
992.323	23.70949
992.493	-69.00336
992.662	46.895
992.832	-54.2568
993.002	42.67924
993.171	6.8491
993.341	-31.08114
993.511	-3.68787
993.68	42.67924
993.85	17.38667
994.019	-50.04327
994.189	40.5714
994.358	-20.54576
994.528	-10.00976
994.697	2.63424
994.867	-7.90249
995.036	-33.18815
995.206	-33.18815
995.375	32.14026
995.544	27.92483
995.714	-50.04327
995.883	-47.93647
996.052	-3.68787
996.222	-16.33143
996.391	17.38667
996.56	51.11085
996.73	42.67924
996.899	2.63424
997.068	0.52684
997.237	25.81715
997.406	-3.68787
997.576	76.40788
997.745	8.95656
997.914	-16.33143
998.083	11.06405
998.252	19.49425
998.421	19.49425
998.59	2.63424
998.759	0.52684
998.928	2.63424
999.097	-37.40208
999.266	-33.18815
999.435	-28.97412
999.604	42.67924
999.773	32.14026
999.942	27.92483
1000.111	-5.79519
1000.28	-10.00976
1000.448	-12.11701
1000.617	86.94927
1000.786	-39.50901
1000.955	59.54283
1001.124	95.38278
1001.292	-18.43861
1001.461	2.63424
1001.63	-14.22423
1001.798	6.8491
1001.967	-1.58052
1002.136	-5.79519
1002.304	8.95656
1002.473	11.06405
1002.642	-45.82964
1002.81	46.895
1002.979	-14.22423
1003.147	-3.68787
1003.316	34.24801
1003.484	-12.11701
1003.653	15.2791
1003.821	23.70949
1003.99	55.32679
1004.158	-96.3865
1004.327	-7.90249
1004.495	-1.58052
1004.663	-1.58052
1004.832	-66.89679
1005	-12.11701
1005.168	-39.50901
1005.337	-39.50901
1005.505	-26.86706
1005.673	11.06405
1005.842	2.63424
1006.01	15.2791
1006.178	-28.97412
1006.346	-28.97412
1006.514	-20.54576
1006.683	-7.90249
1006.851	-41.61591
1007.019	-20.54576
1007.187	0.52684
1007.355	-7.90249
1007.523	-58.47023
1007.691	17.38667
1007.859	38.46358
1008.027	-43.72279
1008.195	-43.72279
1008.363	-16.33143
1008.531	17.38667
1008.699	21.60186
1008.867	13.17157
1009.035	4.74166
1009.203	84.84094
1009.37	-50.04327
1009.538	-62.68356
1009.706	6.8491
1009.874	17.38667
1010.042	-50.04327
1010.209	-24.75999
1010.377	57.4348
1010.545	-7.90249
1010.713	2.63424
1010.88	44.78711
1011.048	-7.90249
1011.216	89.05761
1011.383	-47.93647
1011.551	-18.43861
1011.718	-24.75999
1011.886	-33.18815
1012.054	8.95656
1012.221	84.84094
1012.389	59.54283
1012.556	34.24801
1012.724	-39.50901
1012.891	34.24801
1013.058	23.70949
1013.226	-22.65289
1013.393	-62.68356
1013.561	23.70949
1013.728	8.95656
1013.895	-7.90249
1014.063	-33.18815
1014.23	-58.47023
1014.397	-7.90249
1014.565	-16.33143
1014.732	-7.90249
1014.899	-94.28026
1015.066	2.63424
1015.233	-24.75999
1015.401	-18.43861
1015.568	17.38667
1015.735	36.35578
1015.902	21.60186
1016.069	65.86705
1016.236	38.46358
1016.403	-28.97412
1016.57	0.52684
1016.737	13.17157
1016.904	42.67924
1017.071	-12.11701
1017.238	13.17157
1017.405	-22.65289
1017.572	67.97517
1017.739	19.49425
1017.906	-5.79519
1018.073	-20.54576
1018.24	2.63424
1018.407	-16.33143
1018.573	-3.68787
1018.74	2.63424
1018.907	91.16598
1019.074	-3.68787
1019.241	42.67924
1019.407	25.81715
1019.574	-7.90249
1019.741	-54.2568
1019.907	-35.29512
1020.074	-7.90249
1020.241	-45.82964
1020.407	-35.29512
1020.574	34.24801
1020.74	-5.79519
1020.907	-7.90249
1021.073	30.03253
1021.24	-52.15005
1021.406	-12.11701
1021.573	2.63424
1021.739	-39.50901
1021.906	-31.08114
1022.072	-81.64228
1022.239	-35.29512
1022.405	0.52684
1022.571	-18.43861
1022.738	4.74166
1022.904	8.95656
1023.07	-26.86706
1023.237	19.49425
1023.403	-10.00976
1023.569	11.06405
1023.735	-41.61591
1023.902	-24.75999
1024.068	-24.75999
1024.234	-14.22423
1024.4	17.38667
1024.566	-7.90249
1024.732	13.17157
1024.898	-3.68787
1025.065	13.17157
1025.231	-1.58052
1025.397	8.95656
1025.563	0.52684
1025.729	38.46358
1025.895	-47.93647
1026.061	23.70949
1026.227	27.92483
1026.392	-14.22423
1026.558	6.8491
1026.724	36.35578
1026.89	27.92483
1027.056	-5.79519
1027.222	-14.22423
1027.388	-20.54576
1027.553	6.8491
1027.719	17.38667
1027.885	36.35578
1028.051	8.95656
1028.216	13.17157
1028.382	-33.18815
1028.548	-43.72279
1028.713	11.06405
1028.879	51.11085
1029.045	11.06405
1029.21	-64.79019
1029.376	27.92483
1029.541	-12.11701
1029.707	19.49425
1029.873	-10.00976
1030.038	105.92518
1030.204	8.95656
1030.369	55.32679
1030.534	-64.79019
1030.7	34.24801
1030.865	25.81715
1031.031	-52.15005
1031.196	4.74166
1031.361	23.70949
1031.527	-56.36353
1031.692	32.14026
1031.857	42.67924
1032.023	30.03253
1032.188	8.95656
1032.353	-41.61591
1032.518	-7.90249
1032.684	-14.22423
1032.849	-16.33143
1033.014	-22.65289
1033.179	-33.18815
1033.344	49.00291
1033.509	17.38667
1033.674	-50.04327
1033.839	-18.43861
1034.004	4.74166
1034.17	53.21881
1034.335	40.5714
1034.5	-3.68787
1034.664	13.17157
1034.829	-64.79019
1034.994	-33.18815
1035.159	34.24801
1035.324	-58.47023
1035.489	13.17157
1035.654	2.63424
1035.819	-58.47023
1035.984	61.65088
1036.148	0.52684
1036.313	8.95656
1036.478	4.74166
1036.643	19.49425
1036.807	19.49425
1036.972	-7.90249
1037.137	0.52684
1037.301	15.2791
1037.466	-45.82964
1037.631	11.06405
1037.795	-58.47023
1037.96	15.2791
1038.124	-16.33143
1038.289	30.03253
1038.454	8.95656
1038.618	0.52684
1038.783	36.35578
1038.947	25.81715
1039.111	4.74166
1039.276	-24.75999
1039.44	93.27437
1039.605	-10.00976
1039.769	-92.17399
1039.933	8.95656
1040.098	-20.54576
1040.262	13.17157
1040.426	21.60186
1040.591	-24.75999
1040.755	-35.29512
1040.919	36.35578
1041.083	-28.97412
1041.248	4.74166
1041.412	0.52684
1041.576	13.17157
1041.74	-50.04327
1041.904	-20.54576
1042.068	40.5714
1042.232	0.52684
1042.397	-12.11701
1042.561	42.67924
1042.725	27.92483
1042.889	0.52684
1043.053	-28.97412
1043.217	46.895
1043.381	-33.18815
1043.544	34.24801
1043.708	-60.57691
1043.872	25.81715
1044.036	0.52684
1044.2	-14.22423
1044.364	46.895
1044.528	11.06405
1044.691	-43.72279
1044.855	-24.75999
1045.019	8.95656
1045.183	-37.40208
1045.346	-31.08114
1045.51	-7.90249
1045.674	-37.40208
1045.837	-45.82964
1046.001	17.38667
1046.165	-47.93647
1046.328	8.95656
1046.492	25.81715
1046.655	-66.89679
1046.819	0.52684
1046.983	-71.10991
1047.146	-75.32294
1047.31	-28.97412
1047.473	-92.17399
1047.636	2.63424
1047.8	-39.50901
1047.963	-64.79019
1048.127	-106.91731
1048.29	-52.15005
