Data from Scatter_Coeff_Baseline_USB4F045381__43__0043.txt Node

Date: Thu Feb 13 19:30:05 EST 2025
User: mmckonesweet
Spectrometer: USB4F04538
Trigger mode: 4
Integration Time (sec): 2.400000E-3
Scans to average: 1
Electric dark correction enabled: true
Nonlinearity correction enabled: true
Boxcar width: 0
XAxis mode: Wavelengths
Number of Pixels in Spectrum: 3648
>>>>>Begin Spectral Data<<<<<
345.52	57.25913
345.736	57.25913
345.952	57.25913
346.168	-27.04265
346.384	6.67348
346.6	-41.79148
346.816	12.99594
347.032	-20.72135
347.248	48.82725
347.464	-20.72135
347.68	-29.1497
347.896	29.85689
348.112	-79.71139
348.328	67.79949
348.544	29.85689
348.76	-52.32561
348.975	55.15113
349.191	-16.50703
349.407	23.53386
349.623	65.69137
349.839	-18.61421
350.055	-46.00521
350.27	90.99028
350.486	-8.0781
350.702	-14.39983
350.918	-33.36373
351.133	12.99594
351.349	15.10348
351.565	65.69137
351.781	-37.57766
351.996	-10.18537
352.212	-39.68458
352.428	-1.75614
352.644	-12.29261
352.859	-5.9708
353.075	65.69137
353.291	19.31862
353.506	-54.43236
353.722	23.53386
353.938	-1.75614
354.153	40.39575
354.369	48.82725
354.584	76.23219
354.8	50.93519
355.016	-10.18537
355.231	93.09867
355.447	-20.72135
355.662	-41.79148
355.878	12.99594
356.093	-29.1497
356.309	-12.29261
356.524	40.39575
356.74	109.96657
356.955	-3.86348
357.171	-10.18537
357.386	97.31551
357.602	4.56604
357.817	-20.72135
358.033	-20.72135
358.248	6.67348
358.464	63.58328
358.679	-54.43236
358.895	72.0158
359.11	99.42397
359.325	-24.93558
359.541	-27.04265
359.756	36.18013
359.972	88.88192
360.187	21.42623
360.402	-3.86348
360.618	-35.47071
360.833	25.64151
361.048	50.93519
361.264	40.39575
361.479	19.31862
361.694	63.58328
361.909	2.45862
362.125	-12.29261
362.34	-1.75614
362.555	21.42623
362.77	8.78094
362.986	46.71934
363.201	-20.72135
363.416	38.28793
363.631	69.90763
363.847	29.85689
364.062	29.85689
364.277	12.99594
364.492	34.07236
364.707	-8.0781
364.922	42.50359
365.138	-1.75614
365.353	29.85689
365.568	-29.1497
365.783	-27.04265
365.998	90.99028
366.213	40.39575
366.428	29.85689
366.643	-94.45578
366.858	-18.61421
367.073	63.58328
367.288	65.69137
367.503	55.15113
367.718	12.99594
367.933	4.56604
368.148	31.96461
368.363	48.82725
368.578	50.93519
368.793	-20.72135
369.008	50.93519
369.223	29.85689
369.438	21.42623
369.653	29.85689
369.868	4.56604
370.083	-16.50703
370.298	65.69137
370.513	-48.11204
370.728	80.44868
370.943	23.53386
371.157	42.50359
371.372	74.12398
371.587	-14.39983
371.802	-3.86348
372.017	0.35123
372.232	4.56604
372.446	42.50359
372.661	23.53386
372.876	46.71934
373.091	-46.00521
373.306	-33.36373
373.52	63.58328
373.735	34.07236
373.95	-29.1497
374.165	57.25913
374.379	4.56604
374.594	29.85689
374.809	31.96461
375.023	-60.75247
375.238	4.56604
375.453	17.21104
375.667	21.42623
375.882	23.53386
376.097	-8.0781
376.311	0.35123
376.526	42.50359
376.741	15.10348
376.955	63.58328
377.17	72.0158
377.384	12.99594
377.599	-46.00521
377.813	-22.82848
378.028	-43.89836
378.242	-12.29261
378.457	4.56604
378.672	8.78094
378.886	67.79949
379.101	4.56604
379.315	-12.29261
379.53	38.28793
379.744	4.56604
379.958	12.99594
380.173	19.31862
380.387	-14.39983
380.602	-50.21884
380.816	95.20708
381.031	74.12398
381.245	40.39575
381.459	63.58328
381.674	59.36716
381.888	67.79949
382.103	50.93519
382.317	-39.68458
382.531	46.71934
382.746	31.96461
382.96	29.85689
383.174	29.85689
383.388	15.10348
383.603	-54.43236
383.817	-20.72135
384.031	-12.29261
384.246	0.35123
384.46	61.47521
384.674	8.78094
384.888	4.56604
385.103	21.42623
385.317	23.53386
385.531	-10.18537
385.745	0.35123
385.959	6.67348
386.174	-12.29261
386.388	-5.9708
386.602	42.50359
386.816	88.88192
387.03	25.64151
387.244	8.78094
387.458	-5.9708
387.672	40.39575
387.887	48.82725
388.101	21.42623
388.315	17.21104
388.529	72.0158
388.743	63.58328
388.957	8.78094
389.171	-52.32561
389.385	6.67348
389.599	-20.72135
389.813	67.79949
390.027	15.10348
390.241	48.82725
390.455	-1.75614
390.669	-31.25673
390.883	38.28793
391.097	46.71934
391.311	0.35123
391.525	72.0158
391.738	21.42623
391.952	23.53386
392.166	31.96461
392.38	6.67348
392.594	4.56604
392.808	55.15113
393.022	114.18377
393.236	-3.86348
393.449	4.56604
393.663	15.10348
393.877	59.36716
394.091	29.85689
394.305	6.67348
394.518	-16.50703
394.732	-29.1497
394.946	36.18013
395.16	29.85689
395.373	-10.18537
395.587	12.99594
395.801	0.35123
396.015	40.39575
396.228	-64.96574
396.442	10.88843
396.656	42.50359
396.869	34.07236
397.083	12.99594
397.297	72.0158
397.51	-14.39983
397.724	29.85689
397.938	31.96461
398.151	101.53244
398.365	59.36716
398.578	6.67348
398.792	55.15113
399.005	23.53386
399.219	34.07236
399.433	48.82725
399.646	38.28793
399.86	42.50359
400.073	80.44868
400.287	57.25913
400.5	-39.68458
400.714	42.50359
400.927	31.96461
401.141	50.93519
401.354	8.78094
401.567	50.93519
401.781	23.53386
401.994	-1.75614
402.208	-3.86348
402.421	31.96461
402.635	31.96461
402.848	25.64151
403.061	-12.29261
403.275	67.79949
403.488	21.42623
403.701	-3.86348
403.915	-12.29261
404.128	23.53386
404.341	17.21104
404.555	12.99594
404.768	57.25913
404.981	80.44868
405.195	19.31862
405.408	-58.64579
405.621	-18.61421
405.834	-8.0781
406.048	-8.0781
406.261	-27.04265
406.474	21.42623
406.687	12.99594
406.9	-22.82848
407.114	-3.86348
407.327	10.88843
407.54	8.78094
407.753	65.69137
407.966	-10.18537
408.179	31.96461
408.392	12.99594
408.605	84.66525
408.819	78.34042
409.032	21.42623
409.245	4.56604
409.458	23.53386
409.671	67.79949
409.884	31.96461
410.097	44.61145
410.31	97.31551
410.523	4.56604
410.736	21.42623
410.949	105.74946
411.162	25.64151
411.375	-18.61421
411.588	-3.86348
411.801	25.64151
412.014	55.15113
412.227	48.82725
412.44	29.85689
412.653	0.35123
412.865	38.28793
413.078	38.28793
413.291	55.15113
413.504	-18.61421
413.717	23.53386
413.93	-24.93558
414.143	59.36716
414.356	-46.00521
414.568	23.53386
414.781	40.39575
414.994	55.15113
415.207	34.07236
415.42	-31.25673
415.632	88.88192
415.845	17.21104
416.058	55.15113
416.271	12.99594
416.483	42.50359
416.696	2.45862
416.909	21.42623
417.121	-29.1497
417.334	-8.0781
417.547	4.56604
417.759	-60.75247
417.972	44.61145
418.185	-5.9708
418.397	50.93519
418.61	72.0158
418.823	42.50359
419.035	10.88843
419.248	57.25913
419.46	48.82725
419.673	12.99594
419.885	-79.71139
420.098	65.69137
420.311	-10.18537
420.523	72.0158
420.736	84.66525
420.948	46.71934
421.161	-12.29261
421.373	6.67348
421.586	19.31862
421.798	46.71934
422.01	-60.75247
422.223	38.28793
422.435	17.21104
422.648	50.93519
422.86	-29.1497
423.073	40.39575
423.285	67.79949
423.497	8.78094
423.71	78.34042
423.922	29.85689
424.134	-24.93558
424.347	38.28793
424.559	8.78094
424.771	57.25913
424.984	-37.57766
425.196	80.44868
425.408	103.64094
425.621	15.10348
425.833	72.0158
426.045	42.50359
426.257	44.61145
426.47	6.67348
426.682	50.93519
426.894	-22.82848
427.106	29.85689
427.318	-35.47071
427.531	55.15113
427.743	6.67348
427.955	0.35123
428.167	27.74919
428.379	34.07236
428.591	31.96461
428.804	55.15113
429.016	105.74946
429.228	-46.00521
429.44	-12.29261
429.652	50.93519
429.864	55.15113
430.076	-24.93558
430.288	38.28793
430.5	-8.0781
430.712	40.39575
430.924	80.44868
431.136	90.99028
431.348	53.04315
431.56	25.64151
431.772	72.0158
431.984	55.15113
432.196	-12.29261
432.408	38.28793
432.62	38.28793
432.832	29.85689
433.044	29.85689
433.256	72.0158
433.468	38.28793
433.679	8.78094
433.891	-60.75247
434.103	-35.47071
434.315	50.93519
434.527	72.0158
434.739	48.82725
434.95	44.61145
435.162	53.04315
435.374	76.23219
435.586	23.53386
435.798	8.78094
436.009	4.56604
436.221	4.56604
436.433	67.79949
436.645	-12.29261
436.856	42.50359
437.068	57.25913
437.28	46.71934
437.491	131.05342
437.703	55.15113
437.915	29.85689
438.126	65.69137
438.338	78.34042
438.55	50.93519
438.761	21.42623
438.973	72.0158
439.184	65.69137
439.396	118.40105
439.608	74.12398
439.819	46.71934
440.031	90.99028
440.242	-22.82848
440.454	57.25913
440.665	-3.86348
440.877	-5.9708
441.088	69.90763
441.3	74.12398
441.511	25.64151
441.723	78.34042
441.934	0.35123
442.146	-12.29261
442.357	101.53244
442.569	80.44868
442.78	8.78094
442.991	-16.50703
443.203	38.28793
443.414	40.39575
443.626	23.53386
443.837	21.42623
444.048	88.88192
444.26	34.07236
444.471	59.36716
444.682	67.79949
444.894	-10.18537
445.105	55.15113
445.316	59.36716
445.528	-54.43236
445.739	-5.9708
445.95	122.61842
446.161	10.88843
446.373	126.83588
446.584	6.67348
446.795	118.40105
447.006	38.28793
447.217	160.57861
447.429	59.36716
447.64	31.96461
447.851	88.88192
448.062	42.50359
448.273	88.88192
448.484	48.82725
448.695	97.31551
448.907	97.31551
449.118	10.88843
449.329	-18.61421
449.54	112.07516
449.751	55.15113
449.962	122.61842
450.173	67.79949
450.384	90.99028
450.595	34.07236
450.806	120.50972
451.017	95.20708
451.228	48.82725
451.439	42.50359
451.65	34.07236
451.861	42.50359
452.072	53.04315
452.283	103.64094
452.494	42.50359
452.705	48.82725
452.915	59.36716
453.126	46.71934
453.337	46.71934
453.548	84.66525
453.759	109.96657
453.97	147.92445
454.181	74.12398
454.391	103.64094
454.602	145.81549
454.813	63.58328
455.024	141.59765
455.235	42.50359
455.445	114.18377
455.656	171.12431
455.867	29.85689
456.078	107.85801
456.288	162.68771
456.499	61.47521
456.71	156.36047
456.921	131.05342
457.131	114.18377
457.342	105.74946
457.553	74.12398
457.763	34.07236
457.974	133.16222
458.184	57.25913
458.395	59.36716
458.606	114.18377
458.816	128.94464
459.027	116.2924
459.237	76.23219
459.448	97.31551
459.659	46.71934
459.869	99.42397
460.08	109.96657
460.29	143.70656
460.501	107.85801
460.711	213.31227
460.922	69.90763
461.132	156.36047
461.343	133.16222
461.553	124.72714
461.764	173.23352
461.974	147.92445
462.184	99.42397
462.395	187.99852
462.605	114.18377
462.816	105.74946
463.026	177.45199
463.236	114.18377
463.447	131.05342
463.657	160.57861
463.867	211.20268
464.078	181.67054
464.288	211.20268
464.498	198.54556
464.709	219.64116
464.919	204.87403
465.129	169.01513
465.339	223.86052
465.55	183.77985
465.76	204.87403
465.97	244.95848
466.18	259.7282
466.391	280.82941
466.601	200.65503
466.811	304.04289
467.021	204.87403
467.231	221.75083
467.441	223.86052
467.651	230.1897
467.862	320.92681
468.072	335.70117
468.282	268.16846
468.492	204.87403
468.702	335.70117
468.912	223.86052
469.122	295.60137
469.332	371.58532
469.542	377.91833
469.752	367.3634
469.962	318.81625
470.172	382.14042
470.382	358.91976
470.592	337.81186
470.802	451.81433
471.012	439.14506
471.222	434.92209
471.432	500.38496
471.642	428.58776
471.852	527.84137
472.062	506.72084
472.272	565.86185
472.482	589.09874
472.691	586.98623
472.901	591.21126
473.111	561.63713
473.321	618.67523
473.531	648.25418
473.741	603.88667
473.95	622.90065
474.16	637.69
474.37	726.4382
474.58	753.91183
474.79	789.84149
474.999	785.61432
475.209	722.21165
475.419	775.04658
475.628	895.53252
475.838	745.45822
476.048	927.24391
476.258	899.7606
476.467	1214.82409
476.677	1068.90714
476.886	933.58639
477.096	1102.74106
477.306	1140.8057
477.515	1090.05319
477.725	1151.37947
477.935	1121.7732
478.144	1221.16873
478.354	1238.08789
478.563	1398.82708
478.773	1263.46698
478.982	1451.70332
479.192	1358.64142
479.401	1534.1901
479.611	1496.11938
479.82	1498.23443
480.03	1445.35816
480.239	1773.17572
480.449	1631.48003
480.658	1699.15732
480.868	1779.51994
481.077	1834.50163
481.287	1739.33927
481.496	1940.22645
481.705	1925.42579
481.915	2045.93672
482.124	1948.68385
482.333	2145.28859
482.543	2018.45361
482.752	2092.4439
482.961	2041.70863
483.171	2297.4523
483.38	1999.42618
483.589	2413.65586
483.799	2436.89286
484.008	2527.71569
484.217	2348.16302
484.426	2479.13859
484.636	2369.29081
484.845	2645.96441
485.054	2447.4547
485.263	2705.07425
485.472	2618.5172
485.682	2992.02783
485.891	2827.48325
486.1	2595.29102
486.309	2918.20467
486.518	2888.67037
486.727	2861.24313
486.936	3065.83246
487.146	2937.1895
487.355	3141.72584
487.564	2979.37373
487.773	3322.94101
487.982	3249.20557
488.191	3266.06122
488.4	3072.15769
488.609	3411.39565
488.818	3164.91135
489.027	3451.40063
489.236	3215.49106
489.445	3663.94809
489.654	3520.86752
489.863	3745.96951
490.072	3613.45894
490.281	3754.3803
490.49	3661.84459
490.698	3798.53185
490.907	3642.91227
491.116	3874.20002
491.325	3891.01166
491.534	3895.21437
491.743	3758.58558
491.952	3918.32785
492.16	4136.73323
492.369	4147.22784
492.578	3893.11303
492.787	4258.43825
492.996	4157.72193
493.204	4306.68074
493.413	4312.97241
493.622	4338.13711
493.831	4342.33092
494.039	4352.81508
494.248	4411.51634
494.457	4558.19432
494.665	4583.32823
494.874	4706.85651
495.083	4430.38097
495.291	4769.63745
495.5	4803.11228
495.709	4650.3363
495.917	4669.17819
496.126	4824.03109
496.335	4807.29622
496.543	4930.68153
496.752	4888.86492
496.96	5070.7001
497.169	4934.86268
497.377	5097.85586
497.586	4924.40962
497.794	5137.538
498.003	5214.78965
498.211	5147.97928
498.42	5039.36166
498.628	5281.57613
498.837	5156.33188
499.045	5475.5382
499.254	5337.9086
499.462	5369.19704
499.671	5454.69181
499.879	5531.81169
500.087	5504.71919
500.296	5513.05577
500.504	5679.70816
500.713	5721.34768
500.921	5567.23434
501.129	5600.56709
501.338	5444.26773
501.546	5925.24483
501.754	5663.04972
501.962	5935.64167
502.171	5650.55489
502.379	6178.75964
502.587	5671.37913
502.795	6018.79518
503.004	5771.30263
503.212	5854.53068
503.42	5846.20957
503.628	5968.9076
503.837	6014.6384
504.045	6025.03017
504.253	6135.14679
504.461	6311.61119
504.669	6153.83928
504.877	6431.92521
505.085	6253.50044
505.294	6369.70362
505.502	6149.68556
505.71	6326.13602
505.918	6274.25639
506.126	6452.66109
506.334	6353.10765
506.542	6568.7391
506.75	6622.60779
506.958	6516.92754
507.166	6473.39464
507.374	6645.3937
507.582	6693.02796
507.79	6670.24788
507.998	6543.87136
508.206	6742.72033
508.414	6554.23332
508.622	6713.73472
508.83	6771.70145
509.037	6945.49439
509.245	6672.31891
509.453	6779.98095
509.661	6904.12965
509.869	6970.30889
510.077	6794.46919
510.285	6908.26653
510.492	6858.61796
510.7	7220.34136
510.908	7003.38984
511.116	7338.01268
511.324	7247.18498
511.531	7290.53987
511.739	6990.98516
511.947	7284.34691
512.155	7156.31457
512.362	7240.99063
512.57	7379.28398
512.778	7300.86103
512.985	7123.26013
513.193	7366.90351
513.401	7160.44597
513.608	7529.85047
513.816	7331.82123
514.024	7325.62959
514.231	7478.29958
514.439	7645.27586
514.646	7626.72986
514.854	7389.60044
515.061	7453.55036
515.269	7781.22755
515.477	7496.85945
515.684	7865.63645
515.892	7486.54862
516.099	7894.45101
516.307	7725.62204
516.514	7984.9848
516.722	7845.05214
516.929	8067.25395
517.136	7655.57845
517.344	7915.03036
517.551	7910.91466
517.759	8042.57662
517.966	8085.76005
518.173	8059.0285
518.381	7908.85677
518.588	8126.87887
518.796	7931.49236
519.003	8350.83666
519.21	8223.47661
519.418	8223.47661
519.625	8268.67752
519.832	8246.07826
520.039	8313.86892
520.247	8469.91227
520.454	8293.32855
520.661	8695.56971
520.868	8161.82356
521.076	8572.51202
521.283	8582.7694
521.49	8695.56971
521.697	8496.59277
521.904	8871.83683
522.112	8330.29981
522.319	8845.20041
522.526	8597.12894
522.733	8892.32433
522.94	8707.8718
523.147	8933.29396
523.354	8783.72009
523.561	9090.96118
523.768	8728.37381
523.975	9309.88781
524.183	8996.78287
524.39	9107.33627
524.597	9066.39647
524.804	9236.25184
525.011	9113.47664
525.218	9540.88464
525.425	9007.02143
525.632	9236.25184
525.838	9154.40852
526.045	9328.29342
526.252	9244.43469
526.459	9350.78736
526.666	9418.25726
526.873	9538.84132
527.08	9596.04825
527.287	9728.80288
527.494	9403.94695
527.701	9698.17298
527.907	9685.92006
528.114	9939.03665
528.321	9694.08874
528.528	9679.79339
528.735	9751.26262
528.941	9857.41123
529.148	9587.87659
529.355	9788.01097
529.562	9401.90256
529.768	9888.02352
529.975	9585.83363
530.182	10067.54957
530.388	9965.55987
530.595	10204.16042
530.802	9783.92806
531.008	10098.13954
531.215	10142.99911
531.422	10179.69739
531.628	9996.16055
531.835	10112.41377
532.042	10036.95641
532.248	10234.73644
532.455	10096.1003
532.661	10464.97893
532.868	10350.89757
533.074	10412.01767
533.281	10395.72013
533.487	10611.59589
533.694	10120.57017
533.9	10631.95423
534.107	10242.88953
534.313	10886.33175
534.52	10473.12604
534.726	10721.51638
534.933	10731.69242
535.139	10642.13294
535.345	10688.95105
535.552	10627.88266
535.758	10636.02575
535.965	10990.06554
536.171	10896.50304
536.377	10884.29746
536.584	10953.45697
536.79	11002.26759
536.996	11122.23338
537.203	11051.07182
537.409	10788.6727
537.615	11112.06826
537.821	10723.55161
538.028	11047.00504
538.234	11124.26638
538.44	11345.79989
538.646	10943.28727
538.853	11091.73719
539.059	11030.7375
539.265	11254.35597
539.471	11309.22479
539.677	11099.86975
539.883	11103.93596
540.09	11329.54469
540.296	11429.09783
540.502	11565.18386
540.708	11124.26638
540.914	11563.15304
541.12	11439.25499
541.326	11536.75149
541.532	11351.89543
541.738	11794.60855
541.944	11457.53726
542.15	11918.41118
542.356	11778.36981
542.562	11898.11779
542.768	11820.99535
542.974	11956.96636
543.18	11997.54761
543.386	12076.67195
543.592	12011.7503
543.798	11956.96636
544.004	11989.43162
544.21	12228.8015
544.415	11942.76216
544.621	12137.52883
544.827	11816.93593
545.033	12232.85772
545.239	12220.68898
545.445	12293.69755
545.651	11879.85304
545.856	12210.54816
546.062	12202.43537
546.268	12305.86474
546.474	12017.83704
546.679	12281.53009
546.885	12251.11034
547.091	12299.78118
547.297	12216.63267
547.502	12382.91785
547.708	12105.07268
547.914	12395.08323
548.119	12472.12501
548.325	12559.29251
548.531	12344.39254
548.736	12628.20742
548.942	12652.52864
549.147	12541.04913
549.353	12565.37353
549.559	12761.96357
549.764	12650.5019
549.97	12893.66886
550.175	12672.79566
550.381	13017.24871
550.586	12731.56668
550.792	13136.75912
550.997	12816.67475
551.203	13051.68564
551.408	12739.67264
551.614	13088.14674
551.819	12861.25124
552.025	13314.98215
552.23	12776.14834
552.435	13353.45775
552.641	13262.32888
552.846	13134.73366
553.052	13179.29275
553.257	13359.53271
553.462	13240.05162
553.668	13268.4044
553.873	13391.93187
554.078	13614.6497
554.283	13195.49551
554.489	13345.35775
554.694	13428.37972
554.899	13592.37989
555.105	13310.932
555.31	13578.20797
555.515	13491.14808
555.72	13689.55428
555.925	13460.77675
556.131	13776.60002
556.336	13501.27166
556.541	13596.42898
556.746	13381.80724
556.951	13703.72491
557.156	13549.86362
557.361	13817.08449
557.567	13744.21157
557.772	13958.77125
557.977	13651.09033
558.182	13995.20289
558.387	13865.66433
558.592	13782.67276
558.797	13701.70054
559.002	13877.80903
559.207	14256.2745
559.412	14049.84886
559.617	14035.68155
559.822	13930.43496
560.027	13786.72124
560.232	13958.77125
560.437	14157.11198
560.642	14102.46928
560.847	14197.58705
561.051	14177.34962
561.256	14213.77686
561.461	14357.45612
561.666	14185.44462
561.871	14422.21016
562.076	14314.96037
562.281	14252.22714
562.485	14414.11599
562.69	14468.75116
562.895	14375.66836
563.1	14573.97165
563.305	14507.19752
563.509	14493.03313
563.714	14541.59648
563.919	14711.56297
564.123	14438.39842
564.328	14646.81471
564.533	14559.80755
564.737	14298.77132
564.942	14399.95114
565.147	14679.18896
565.351	14495.05662
565.556	14521.36184
565.761	14737.86668
565.965	14691.32924
566.17	14828.91696
566.374	14883.54648
566.579	14731.79661
566.784	14768.21694
566.988	14707.51623
567.193	14885.56979
567.397	14737.86668
567.602	15144.55007
567.806	14687.28248
568.011	14849.15017
568.215	14899.73292
568.42	15146.57335
568.624	14889.6164
568.828	14958.40852
569.033	14899.73292
569.237	15217.38782
569.442	15185.01549
569.646	15130.38718
569.85	15189.06203
570.055	15290.2257
570.259	15375.20362
570.463	15324.62146
570.668	15371.15704
570.872	15272.01621
571.076	15425.78601
571.281	15419.71611
571.485	15460.18221
571.689	15385.32008
571.893	15443.99575
572.098	15391.38996
572.302	15464.22883
572.506	15581.58189
572.71	15110.15447
572.914	15620.02565
573.119	15407.57632
573.323	15411.62292
573.527	15213.34128
573.731	15783.92098
573.935	15866.88291
574.139	15802.13197
574.343	15524.92842
574.547	16170.421
574.751	15595.74535
574.955	15618.00228
575.159	15581.58189
575.364	15650.37618
575.568	15605.86213
575.772	15660.49307
575.976	15919.49395
576.18	16034.83665
576.383	15899.25884
576.587	16032.81306
576.791	16085.42701
576.995	15990.31789
577.199	16022.6951
577.403	16301.96515
577.607	16639.96976
577.811	16350.53721
578.015	16283.7509
578.219	16257.44168
578.422	16348.51336
578.626	16374.82366
578.83	16330.29872
579.034	16295.89371
579.238	16225.06152
579.442	16176.49211
579.645	16287.7985
579.849	16378.87142
580.053	16589.36652
580.257	16346.4895
580.46	16388.99088
580.664	16524.59639
580.868	16336.37025
581.071	16698.67131
581.275	16639.96976
581.479	16921.35075
581.682	16727.01068
581.886	16581.27013
582.09	16599.48706
582.293	16830.25098
582.497	16696.64708
582.7	16660.21146
582.904	16779.6422
583.107	16623.77657
583.311	16763.44771
583.515	16607.58353
583.718	16455.7805
583.922	16767.49632
584.125	16897.05697
584.329	16945.6449
584.532	16897.05697
584.735	17089.39317
584.939	16884.91022
585.142	16799.88553
585.346	17044.84999
585.549	17200.75706
585.753	16973.98856
585.956	16986.136
586.159	17251.37988
586.363	17508.57282
586.566	17253.40483
586.769	17257.45474
586.973	17158.23529
587.176	17488.3196
587.379	17435.66269
587.582	17415.4106
587.786	17006.38195
587.989	17464.01615
588.192	17484.26899
588.395	17814.43607
588.599	17571.35984
588.802	17694.9176
589.005	17470.09197
589.208	17968.40965
589.411	17621.99679
589.615	17370.85708
589.818	17415.4106
590.021	17798.22948
590.224	17759.73971
590.427	17935.99249
590.63	17682.76383
590.833	18104.16642
591.036	17885.34246
591.239	17867.10898
591.442	17648.32881
591.645	18021.08948
591.848	18140.64114
592.051	17986.6447
592.254	18087.95581
592.457	18483.15674
592.66	17927.88833
592.863	18323.03258
593.066	18185.22295
593.269	18213.59412
593.472	18128.48276
593.675	18284.52522
593.878	18039.32536
594.081	18015.01091
594.284	18181.16999
594.486	18521.67116
594.689	18359.51449
594.892	18428.4281
595.095	18515.58985
595.298	18347.35372
595.5	18191.30243
595.703	18645.33216
595.906	18466.94056
596.109	18381.80959
596.311	18813.61561
596.514	18621.00427
596.717	18402.07826
596.92	18550.0511
597.122	18462.88655
597.325	18612.89509
597.528	18675.74283
597.73	18793.33905
597.933	18586.54071
598.136	18929.1996
598.338	18505.45439
598.541	18641.27748
598.743	19022.48742
598.946	18963.67454
599.148	18921.08802
599.351	18777.11809
599.554	18866.33652
599.756	18722.37422
599.959	19127.95354
600.161	18813.61561
600.363	18809.56026
600.566	18953.53473
600.768	18951.50678
600.971	18933.25541
601.173	18821.72634
601.376	19217.20272
601.578	18981.92645
601.78	19397.75379
601.983	19012.34703
602.185	19042.76851
602.388	19127.95354
602.59	19207.06037
602.792	19253.71603
602.995	19594.57156
603.197	19265.88743
603.399	19016.40317
603.601	19257.77315
603.804	18915.00437
604.006	19213.14577
604.208	19014.3751
604.41	19075.21911
604.613	19146.20841
604.815	19369.35033
605.017	19430.21589
605.219	19326.74666
605.421	19401.8115
605.623	19186.77597
605.826	19659.50974
606.028	18945.42295
606.23	19521.52122
606.432	19129.98184
606.634	20035.01773
606.836	19391.66727
607.038	19679.80379
607.24	19501.23042
607.442	19763.01381
607.644	19710.24567
607.846	19834.05233
608.048	19286.17343
608.25	19610.8057
608.452	19515.43394
608.654	19795.48793
608.856	19564.13326
609.058	19986.29506
609.26	19797.5176
609.462	19817.8145
609.664	19556.01654
609.866	19507.31762
610.067	19535.72503
610.269	19401.8115
610.471	19219.2312
610.673	19505.28855
610.875	19663.56851
611.077	19598.63007
611.278	19590.51307
611.48	19807.666
611.682	19515.43394
611.884	19834.05233
612.085	19549.92904
612.287	19677.77437
612.489	19521.52122
612.69	19805.63631
612.892	19590.51307
613.094	19903.06611
613.295	19334.86151
613.497	19523.55032
613.699	19474.853
613.9	19785.33965
614.102	19752.86587
614.304	19803.60662
614.505	19507.31762
614.707	19866.5288
614.908	19543.84158
615.11	19905.096
615.311	19734.59984
615.513	19523.55032
615.714	19878.70775
615.916	19974.11477
616.117	19763.01381
616.319	19937.57481
616.52	19805.63631
616.722	20099.98505
616.923	20181.20027
617.124	20370.05164
617.326	20091.8639
617.527	20296.94358
617.729	20351.77412
617.93	20083.74282
618.131	20030.95741
618.333	20053.28935
618.534	19957.87462
618.735	20018.77657
618.937	20037.04789
619.138	19933.5149
619.339	20099.98505
619.54	20294.91287
619.742	20126.37926
619.943	20081.71256
620.144	20075.6218
620.345	20059.37997
620.546	19799.54727
620.748	20114.19723
620.949	20262.42221
621.15	20108.10627
621.351	20361.92826
621.552	20175.1089
621.753	20185.26121
621.954	20055.31955
622.155	19913.2156
622.356	20382.23685
622.558	20181.20027
622.759	20321.31233
622.96	20020.8067
623.161	19996.44542
623.362	20424.88626
623.563	20260.39158
623.764	20099.98505
623.965	20471.59965
624.166	20189.32216
624.366	19827.96312
624.567	19915.24551
624.768	19811.72539
624.969	20055.31955
625.17	20193.38313
625.371	19965.99466
625.572	20475.66178
625.773	19811.72539
625.973	20321.31233
626.174	20006.59588
626.375	20246.17729
626.576	19945.69469
626.777	20477.69286
626.977	20187.29168
627.178	20406.60772
627.379	20599.56503
627.58	20524.40875
627.78	20179.16981
627.981	20201.50513
628.182	20751.92635
628.382	20526.43992
628.583	20327.40461
628.784	20613.78443
628.984	20404.57679
629.185	20780.36972
629.386	20532.53347
629.586	20823.0363
629.787	20449.25819
629.987	20711.29438
630.188	20339.58929
630.388	20353.80494
630.589	20372.0825
630.79	20615.81579
630.99	20181.20027
631.191	20396.45312
631.391	20615.81579
631.591	20607.69037
631.792	20463.47542
631.992	21020.13887
632.193	20760.05294
632.393	20741.7682
632.594	20563.0018
632.794	20780.36972
632.994	20579.25196
633.195	20794.59171
633.395	20780.36972
633.595	20532.53347
633.796	20558.9393
633.996	20993.72081
634.196	20682.85298
634.397	20591.43975
634.597	20449.25819
634.797	20743.79982
634.997	20506.12835
635.198	20788.49655
635.398	20936.82275
635.598	20979.49599
635.798	20814.90919
635.998	20589.40844
636.199	21133.94762
636.399	20918.53477
636.599	20839.29071
636.799	21251.83443
636.999	20583.31454
637.199	20701.13664
637.399	20963.2393
637.599	21375.8335
637.799	20961.20724
637.999	20904.31101
638.199	21156.30442
638.399	20936.82275
638.599	20802.71865
638.799	21070.94476
638.999	21398.19558
639.199	20942.91881
639.399	21034.36426
639.599	21205.08458
639.799	20617.84715
639.999	21020.13887
640.199	20839.29071
640.399	21109.55895
640.599	20333.49693
640.799	21589.30935
640.998	21117.68844
641.198	21192.88932
641.398	20589.40844
641.598	21357.53761
641.798	21422.59112
641.997	21398.19558
642.197	21345.34054
642.397	21347.37337
642.597	21526.2786
642.796	21465.28471
642.996	21318.91403
643.196	21461.21858
643.395	21314.84848
643.595	21233.54076
643.795	21158.33688
643.994	21158.33688
644.194	21288.42276
644.394	21432.7561
644.593	21176.6292
644.793	21806.8961
644.992	21209.1497
645.192	21697.08038
645.392	21528.31179
645.591	21668.61149
645.791	21347.37337
645.99	21223.37775
646.19	21526.2786
646.389	21325.0124
646.589	21756.05408
646.788	21223.37775
646.987	21079.07394
647.187	21764.18864
647.386	21684.87933
647.586	21756.05408
647.785	21599.47596
647.984	21884.18059
648.184	22044.86867
648.383	21613.70937
648.582	21548.64391
648.782	21505.9469
648.981	21198.98693
649.18	21408.36032
649.38	21617.7761
649.579	21735.71795
649.778	21894.35002
649.977	21833.33491
650.177	21327.04519
650.376	21520.17905
650.575	21845.53765
650.774	21772.32326
650.973	21898.41782
651.173	22209.64927
651.372	21961.47063
651.571	21967.57271
651.77	22093.68999
651.969	21703.18095
652.168	21410.39328
652.367	21768.25594
652.566	21640.14337
652.765	22142.51347
652.964	22053.00541
653.163	21717.41577
653.362	21957.40259
653.561	21926.89282
653.76	22038.76616
653.959	21869.94356
654.158	21991.98137
654.357	21876.04512
654.556	21932.99471
654.755	22122.17009
654.954	21558.81013
655.153	21642.17678
655.352	21459.18552
655.551	21747.91958
655.749	21892.31613
655.948	21727.58361
656.147	21623.87622
656.346	21605.57597
656.545	22091.65573
656.743	21695.04686
656.942	22004.1859
657.141	21892.31613
657.34	21731.65077
657.538	21642.17678
657.737	21935.02868
657.936	22085.55295
658.135	21900.45172
658.333	22048.93703
658.532	21882.14672
658.731	22215.75272
658.929	22002.1518
659.128	21810.96357
659.326	22148.61656
659.525	21987.91322
659.724	22040.80033
659.922	22130.3074
660.121	22268.65073
660.319	22250.3396
660.518	21664.54457
660.716	21747.91958
660.915	21792.66009
661.113	21985.87915
661.312	21634.04316
661.51	21963.50465
661.709	21747.91958
661.907	22286.96216
662.105	21792.66009
662.304	21819.09854
662.502	22091.65573
662.701	22299.16994
662.899	21963.50465
663.097	21991.98137
663.296	21989.94729
663.494	22270.68532
663.692	22144.54783
663.891	21837.40247
664.089	21825.19982
664.287	21668.61149
664.485	21867.90971
664.684	22236.09781
664.882	22466.02283
665.08	22197.44246
665.278	22229.99425
665.476	22083.5187
665.675	22132.34173
665.873	22759.09102
666.071	22433.46426
666.269	22254.40871
666.467	22297.1353
666.665	22657.32295
666.863	22476.19758
667.061	22588.12567
667.259	22262.54699
667.457	22449.74343
667.655	21863.84203
667.853	21896.38392
668.051	21871.97741
668.249	22372.41942
668.447	21939.09663
668.645	22386.66292
668.843	22069.27906
669.041	22077.41598
669.239	21292.48821
669.437	22321.55122
669.635	22042.8345
669.833	21825.19982
670.031	21853.67289
670.229	21808.92983
670.426	22183.20135
670.624	22095.72426
670.822	21430.7231
671.02	21900.45172
671.218	21943.16459
671.415	22044.86867
671.613	21977.74292
671.811	21937.06265
672.009	22087.58721
672.206	22138.44476
672.404	22048.93703
672.602	22364.28036
672.799	22223.89072
672.997	22437.53403
673.195	22122.17009
673.392	22061.1422
673.59	21959.43661
673.788	21766.22229
673.985	22179.13249
674.183	21947.23258
674.38	22317.48187
674.578	21939.09663
674.775	21609.64267
674.973	21715.38221
675.17	21654.37733
675.368	21654.37733
675.565	21449.02028
675.763	21945.19858
675.96	21916.72309
676.158	21916.72309
676.355	21534.41138
676.553	21847.57146
676.75	21440.88816
676.947	21693.01335
677.145	21432.7561
677.342	22217.78722
677.539	21491.71496
677.737	21961.47063
677.934	21554.74363
678.131	21774.35693
678.329	21583.20944
678.526	21955.36858
678.723	21666.57803
678.92	22083.5187
679.118	22122.17009
679.315	21930.96074
679.512	21680.81235
679.709	22067.24484
679.906	21499.84747
680.104	21821.1323
680.301	21721.48289
680.498	21737.75155
680.695	21611.67602
680.892	21796.7275
681.089	21916.72309
681.286	22217.78722
681.483	21503.91376
681.68	21971.64078
681.877	21656.41077
682.075	21465.28471
682.272	20985.59232
682.469	21381.9322
682.665	21436.82212
682.862	21642.17678
683.059	21292.48821
683.256	22018.4247
683.453	21729.61719
683.65	21605.57597
683.847	21632.00976
684.044	21656.41077
684.241	21158.33688
684.438	21894.35002
684.635	21298.58642
684.831	21270.12843
685.028	21070.94476
685.225	21516.1127
685.422	20930.72671
685.619	21522.21223
685.815	21351.43906
686.012	21310.78294
686.209	21180.69421
686.405	21491.71496
686.602	21375.8335
686.799	21284.35733
686.996	20910.40688
687.192	20806.78215
687.389	21239.63861
687.586	21087.20319
687.782	20916.50279
687.979	21140.04488
688.175	20936.82275
688.372	20900.24712
688.568	21198.98693
688.765	20729.57856
688.962	21190.85679
689.158	21198.98693
689.355	20904.31101
689.551	20841.32253
689.748	20701.13664
689.944	21087.20319
690.14	21005.91368
690.337	21091.26784
690.533	21081.10625
690.73	20640.19242
690.926	20975.4318
691.123	20912.43885
691.319	20861.64096
691.515	21087.20319
691.712	20796.62344
691.908	20892.11938
692.104	20485.8172
692.301	20544.72069
692.497	20150.74378
692.693	20552.84559
692.889	20233.99377
693.086	20380.20597
693.282	20550.81436
693.478	20713.32594
693.674	20849.44985
693.87	21160.36934
694.067	20865.7047
694.263	20560.97055
694.459	20368.02079
694.655	20660.50675
694.851	20453.32023
695.047	20435.04116
695.243	20491.9105
695.439	20185.26121
695.635	20199.47462
695.831	20579.25196
696.027	20250.23849
696.224	20630.03542
696.42	20613.78443
696.615	20879.9279
696.811	20808.8139
697.007	20770.21128
697.203	20203.53563
697.399	20589.40844
697.595	20565.03305
697.791	20453.32023
697.987	20374.11336
698.183	20721.45221
698.379	20126.37926
698.575	20469.56858
698.77	20138.56144
698.966	20146.68298
699.162	20124.34891
699.358	20303.03571
699.554	20376.14423
699.749	20231.9632
699.945	20418.79338
700.141	20213.68824
700.337	20441.13415
700.532	19963.96465
700.728	20047.19877
700.924	19970.05471
701.119	19963.96465
701.315	19876.67791
701.511	20108.10627
701.706	20605.65903
701.902	20171.048
702.097	20185.26121
702.293	20126.37926
702.489	20138.56144
702.684	20396.45312
702.88	20179.16981
703.075	20374.11336
703.271	20534.56467
703.466	20037.04789
703.662	20325.37385
703.857	20410.66959
704.053	20398.48403
704.248	20319.28158
704.443	20248.20789
704.639	19740.68848
704.834	19866.5288
705.03	19746.77716
705.225	19970.05471
705.42	19689.95098
705.616	19649.36286
705.811	19842.17135
706.006	20130.43997
706.202	19848.26065
706.397	19389.63844
706.592	19673.71553
706.787	19434.27372
706.983	19448.47628
707.178	19917.27543
707.373	19560.07489
707.568	19574.27926
707.763	19622.98149
707.959	20057.34976
708.154	19758.95462
708.349	20035.01773
708.544	20083.74282
708.739	19791.4286
708.934	19353.12015
709.129	19750.8363
709.324	19314.57452
709.519	19507.31762
709.714	19278.05898
709.909	19541.81244
710.104	19428.18697
710.299	19779.25074
710.494	19722.42268
710.689	19746.77716
710.884	19639.2161
711.079	19714.30466
711.274	19040.74039
711.469	19361.23521
711.664	19367.32155
711.859	19931.48495
712.054	19769.10263
712.249	19105.64248
712.443	18961.64657
712.638	19495.14326
712.833	19556.01654
713.028	20051.25916
713.223	19970.05471
713.417	19925.39513
713.612	19377.46552
713.807	19968.02468
714.002	19434.27372
714.196	19801.57694
714.391	19200.97501
714.586	19497.17231
714.78	19391.66727
714.975	19596.60081
715.17	19458.62109
715.364	19574.27926
715.559	19411.95583
715.754	19247.63039
715.948	19217.20272
716.143	19174.60553
716.337	18752.78713
716.532	19186.77597
716.726	19052.90921
716.921	19349.06264
717.115	19399.78264
717.31	19186.77597
717.504	18734.53928
717.699	19188.80439
717.893	18746.70448
718.088	19040.74039
718.282	19154.32179
718.476	18973.81445
718.671	18560.18698
718.865	18931.2275
719.059	18961.64657
719.254	18803.47728
719.448	18689.93477
719.642	18742.6494
719.837	18418.29347
720.031	18931.2275
720.225	18385.86329
720.419	18398.0245
720.614	18545.99678
720.808	18706.15437
721.002	18491.26492
721.196	18817.67097
721.39	19014.3751
721.585	18742.6494
721.779	18754.81469
721.973	18797.39433
722.167	18239.93943
722.361	18600.73145
722.555	18610.86781
722.749	18639.25014
722.943	18203.46148
723.137	18233.85969
723.331	18594.64968
723.525	18552.07827
723.719	18339.24661
723.913	18521.67116
724.107	18233.85969
724.301	18477.07564
724.495	18395.99762
724.689	18414.23964
724.883	18462.88655
725.077	18468.96757
725.271	18527.75251
725.465	18102.14008
725.659	18201.43496
725.853	18430.45503
726.046	18023.11567
726.24	18341.27338
726.434	18023.11567
726.628	18487.21082
726.822	17877.23866
727.015	18556.13262
727.209	18146.72037
727.403	18468.96757
727.596	18310.87222
727.79	17972.46186
727.984	18278.44523
728.177	18385.86329
728.371	17806.33275
728.565	17676.68699
728.758	18136.58833
728.952	18274.39193
729.146	18134.56193
729.339	18764.95254
729.533	18580.45902
729.726	18318.97911
729.92	17988.67084
730.113	18610.86781
730.307	18402.07826
730.5	18270.33864
730.694	17771.89425
730.887	17861.03122
731.081	18266.28536
731.274	18448.69764
731.468	18292.63192
731.661	18452.75159
731.854	18428.4281
732.048	18801.44963
732.241	18102.14008
732.435	18252.09901
732.628	18154.82607
732.821	18169.01118
733.014	18110.24545
733.208	18248.0458
733.401	17966.38355
733.594	17832.66874
733.788	17792.15207
733.981	18351.40729
734.174	18381.80959
734.367	17877.23866
734.56	18156.8525
734.754	17992.72312
734.947	18298.71199
735.14	18377.7559
735.333	18037.29914
735.526	18221.70031
735.719	18120.37726
735.912	18033.2467
736.105	18306.81879
736.298	17626.04783
736.491	17571.35984
736.684	17682.76383
736.877	17431.61225
737.07	17678.7126
737.263	17927.88833
737.456	18248.0458
737.649	18138.61473
737.842	18092.00844
738.035	18035.27292
738.228	17968.40965
738.421	17818.48775
738.614	18035.27292
738.807	17755.68823
739	18004.88004
739.192	17565.28354
739.385	17595.66532
739.578	17468.06669
739.771	17451.86459
739.964	17190.63271
740.156	17668.58459
740.349	17498.44617
740.542	17459.96562
740.735	17326.30504
740.927	17378.95761
741.12	17182.53329
741.313	17330.35516
741.505	17287.82945
741.698	17447.8141
741.891	17617.94576
742.083	17330.35516
742.276	17455.9151
742.468	17417.43579
742.661	17628.07336
742.854	17822.53944
743.046	17443.76362
743.239	17518.69955
743.431	17496.42085
743.624	17293.90447
743.816	17336.43037
744.009	17261.50466
744.201	17140.01206
744.393	17273.6545
744.586	16945.6449
744.778	17059.02268
744.971	17374.90734
745.163	17308.07962
745.355	17585.53798
745.548	17405.28467
745.74	17172.40907
745.932	17212.90637
746.125	17168.3594
746.317	17218.98106
746.509	17115.71477
746.702	17133.9377
746.894	16982.08684
747.086	17184.55814
747.278	17597.6908
747.471	17140.01206
747.663	17101.54155
747.855	17342.50561
748.047	17198.73218
748.239	17486.29429
748.431	17010.43117
748.623	17186.58299
748.815	16872.76357
749.008	17012.45578
749.2	17332.38023
749.392	17105.59103
749.584	16888.95913
749.776	16927.42425
749.968	17030.67744
750.16	16969.93943
750.352	16700.69553
750.544	17154.18566
750.736	17099.51681
750.928	17142.03685
751.12	17000.30813
751.311	17417.43579
751.503	16980.06227
751.695	16714.86518
751.887	16411.25384
752.079	16888.95913
752.271	16536.74062
752.463	17093.44262
752.654	16937.54681
752.846	16882.88577
753.038	16755.35053
753.23	16559.00524
753.421	16552.93305
753.613	16399.11038
753.805	16271.60815
753.997	16516.50027
754.188	16502.33216
754.38	16079.35612
754.572	16148.1604
754.763	16469.94828
754.955	15887.11783
755.146	16212.91908
755.338	16113.75803
755.53	16221.01404
755.721	16255.41791
755.913	16382.9192
756.104	16190.65809
756.296	16554.95711
756.487	15935.68214
756.679	16421.37345
756.87	16214.94282
757.062	16055.07268
757.253	16200.7767
757.445	16016.62435
757.636	16506.38018
757.827	16467.92431
758.019	16803.93422
758.21	16233.15652
758.401	16087.45065
758.593	16083.40338
758.784	16081.37975
758.975	16053.04907
759.167	16000.43573
759.358	15953.89394
759.549	15881.04734
759.74	15735.35874
759.932	15917.47043
760.123	16125.89999
760.314	15933.65861
760.505	16006.50645
760.696	15484.46197
760.888	15909.37638
761.079	15613.95556
761.27	16063.16714
761.461	15711.07784
761.652	15632.16584
761.843	15458.1589
762.034	15798.08507
762.225	15468.27545
762.416	15943.77626
762.607	15949.84687
762.798	15840.5777
762.989	15646.32943
763.18	15636.21258
763.371	15312.48177
763.562	15512.78846
763.753	15316.52833
763.944	15561.34845
764.135	15397.45984
764.326	15464.22883
764.517	14905.80283
764.708	15209.29474
764.899	15211.31801
765.089	15142.5268
765.28	15411.62292
765.471	15474.34539
765.662	15126.34064
765.853	15284.15587
766.043	15140.50353
766.234	15276.06276
766.425	14747.98346
766.615	14952.33865
766.806	15116.22428
766.997	15162.75951
767.187	14857.24343
767.378	15231.55073
767.569	14792.49703
767.759	15162.75951
767.95	15199.17838
768.141	14992.8044
768.331	14946.26877
768.522	14715.6097
768.712	15215.36455
768.903	15203.22492
769.093	14794.52037
769.284	15055.52608
769.474	15166.80605
769.665	14711.56297
769.855	14820.82366
770.046	14834.98693
770.236	14719.65643
770.426	14808.68369
770.617	14723.70316
770.807	14594.20598
770.998	14505.17404
771.188	14752.03016
771.378	14476.84517
771.569	14663.00186
771.759	14128.77892
771.949	14343.29095
772.139	14238.06133
772.33	14213.77686
772.52	14610.39336
772.71	14565.87789
772.9	14480.89217
773.09	14140.92171
773.281	14363.52688
773.471	14563.85445
773.661	14703.46949
773.851	14642.76791
774.041	14310.91312
774.231	14341.26735
774.421	14153.06442
774.611	14272.46386
774.802	14236.03763
774.992	14217.82429
775.182	13881.85724
775.372	13948.6512
775.562	14248.17978
775.752	14371.6212
775.942	13877.80903
776.131	14106.51694
776.321	13679.4323
776.511	14136.87412
776.701	14128.77892
776.891	14100.44545
777.081	14035.68155
777.271	13995.20289
777.461	13863.6402
777.651	13772.5515
777.84	13699.67617
778.03	13962.81925
778.22	14092.35009
778.41	13855.54366
778.599	13794.81817
778.789	13898.04999
778.979	13604.52711
779.169	13742.18727
779.358	13489.12335
779.548	13594.40444
779.738	13723.9684
779.927	13523.54324
780.117	13248.1525
780.307	13231.95067
780.496	13432.4294
780.686	13310.932
780.875	13078.01881
781.065	13671.33466
781.254	13240.05162
781.444	13406.10619
781.633	13728.01706
781.823	13730.04138
782.012	13626.7967
782.202	13446.60317
782.391	13278.53019
782.581	13055.73695
782.77	12794.3855
782.96	13019.27445
783.149	12800.46446
783.338	12790.33284
783.528	12958.50002
783.717	13142.83548
783.906	13112.45327
784.096	12976.73283
784.285	12847.0681
784.474	12832.88469
784.663	12794.3855
784.853	12871.38189
785.042	13104.35117
785.231	13355.48274
785.42	13118.52979
785.61	13187.39417
785.799	12964.57767
785.988	13069.91638
786.177	12942.29273
786.366	13033.4545
786.555	13001.0426
786.744	12834.91091
786.933	12790.33284
787.122	13027.37737
787.312	12976.73283
787.501	12889.61673
787.69	12778.17472
787.879	12644.42166
788.068	12423.46816
788.257	12577.53539
788.445	12380.89026
788.634	12549.15736
788.823	12508.61517
789.012	12283.55802
789.201	12459.96115
789.39	12512.66951
789.579	11938.70374
789.768	12222.71712
789.957	12226.77338
790.145	11975.22832
790.334	12285.58594
790.523	11971.17016
790.712	12382.91785
790.9	12206.49178
791.089	11993.48963
791.278	12395.08323
791.467	12348.44796
791.655	12468.07042
791.844	12328.17062
792.033	12257.19442
792.221	12036.09685
792.41	12032.03917
792.599	11989.43162
792.787	12419.41325
792.976	12403.19334
793.164	12526.85947
793.353	12249.0823
793.541	12301.80904
793.73	11991.46063
793.918	12234.88582
794.107	11942.76216
794.295	12155.78456
794.484	12149.69939
794.672	12098.98694
794.861	11851.43986
795.049	12030.01032
795.238	11282.8074
795.426	11808.81701
795.614	11617.98202
795.803	11682.95591
795.991	11552.99878
796.179	11479.8812
796.368	11561.12221
796.556	11709.34893
796.744	11392.53004
796.932	11697.16773
797.121	11520.50359
797.309	11642.34832
797.497	11522.53461
797.685	11597.67577
797.874	11307.19274
798.062	11518.47256
798.25	11605.79838
798.438	11820.99535
798.626	11540.81337
798.814	11660.62218
799.002	11284.83956
799.19	11203.54483
799.378	11349.86359
799.566	11217.77261
799.755	11423.00342
799.943	11530.6586
800.131	11278.74303
800.318	11396.59329
800.506	11276.71083
800.694	11234.03229
800.882	11150.69432
801.07	11268.58194
801.258	11162.89122
801.446	11079.53804
801.634	10994.13293
801.822	11252.32365
802.01	11140.52994
802.197	11211.67505
802.385	10949.38912
802.573	11258.42058
802.761	11201.51225
802.949	11081.57126
803.136	11087.67085
803.324	11114.1013
803.512	10973.79551
803.699	11136.46411
803.887	11073.43831
804.075	10904.63986
804.262	10774.4285
804.45	10853.78171
804.638	10969.72789
804.825	11024.63698
805.013	10947.35518
805.201	11101.90286
805.388	11061.23857
805.576	11047.00504
805.763	10809.02055
805.951	11105.96905
806.138	10892.43456
806.326	11057.1719
806.513	10778.49833
806.701	10802.91632
806.888	10937.18532
807.075	11126.29936
807.263	10939.21932
807.45	10992.09924
807.638	10682.8447
807.825	11185.25123
808.012	11022.60346
808.2	11150.69432
808.387	11014.46924
808.574	11150.69432
808.761	10977.86308
808.949	11299.06445
809.136	10953.45697
809.323	11425.0349
809.51	10981.93061
809.698	11164.924
809.885	10800.88155
810.072	10957.52476
810.259	10609.55999
810.446	10847.67825
810.633	10849.71275
810.82	10914.81063
811.008	10780.53323
811.195	11081.57126
811.382	11134.43118
811.569	11248.25898
811.756	11128.33233
811.943	11095.80349
812.13	11006.33485
812.317	11276.71083
812.504	11229.96743
812.691	11327.51275
812.878	11057.1719
813.064	11203.54483
813.251	10843.60921
813.438	11148.66146
813.625	10931.08327
813.812	11134.43118
813.999	11213.70758
814.186	11290.93601
814.372	11071.40505
814.559	11530.6586
814.746	11081.57126
814.933	11162.89122
815.12	11079.53804
815.306	11445.34917
815.493	11248.25898
815.68	11197.44706
815.866	11162.89122
816.053	11171.02228
816.24	10949.38912
816.426	11026.6705
816.613	10754.07864
816.799	11264.51743
816.986	11236.06471
817.173	11079.53804
817.359	10678.77375
817.546	11032.77098
817.732	11057.1719
817.919	11128.33233
818.105	10957.52476
818.292	11055.13855
818.478	10933.1173
818.665	11250.29132
818.851	11006.33485
819.037	11307.19274
819.224	11158.82563
819.41	11252.32365
819.597	11112.06826
819.783	11105.96905
819.969	11097.83663
820.156	10918.87886
820.342	10890.4003
820.528	11016.50281
820.714	10951.42305
820.901	10829.36723
821.087	10853.78171
821.273	11020.56992
821.459	10979.89685
821.646	11219.8051
821.832	10884.29746
822.018	10933.1173
822.204	10678.77375
822.39	10717.44588
822.576	10703.19876
822.762	11118.16736
822.948	10636.02575
823.134	10922.94704
823.32	10676.73825
823.507	10745.93836
823.693	10583.09214
823.879	10721.51638
824.065	10782.56811
824.25	10863.95391
824.436	10766.2887
824.622	10971.76171
824.808	10636.02575
824.994	10851.74723
825.18	10491.4563
825.366	10894.4688
825.552	10469.05251
825.738	10640.09722
825.923	10469.05251
826.109	10530.15011
826.295	10473.12604
826.481	10835.47101
826.667	10697.09267
826.852	10701.16341
827.038	10253.08058
827.224	10599.3803
827.409	10267.34749
827.595	10397.75737
827.781	10157.2712
827.966	10173.58132
828.152	10200.08339
828.338	10344.78491
828.523	10108.33549
828.709	10169.50387
828.894	10153.19353
829.08	10450.72099
829.266	10000.24039
829.451	10440.53636
829.637	9951.27844
829.822	10171.5426
830.008	9900.26751
830.193	10147.07692
830.378	10010.43975
830.564	10481.27295
830.749	10310.14424
830.935	10285.68968
831.12	10041.03568
831.305	10318.29533
831.491	9965.55987
831.676	10094.06106
831.861	9871.69738
832.047	9712.46737
832.232	9757.38769
832.417	10012.47958
832.602	9955.35892
832.788	10051.23362
832.973	10122.60923
833.158	10049.19406
833.343	9743.09566
833.528	9759.42935
833.714	9622.60442
833.899	9849.24739
834.084	9532.71127
834.269	9779.8451
834.454	9657.32774
834.639	9706.34129
834.824	9726.761
835.009	9645.07296
835.194	9530.66789
835.379	9630.77502
835.564	9446.8755
835.749	9765.55423
835.934	9555.18742
836.119	9677.75113
836.304	9387.59134
836.489	9530.66789
836.674	9176.91814
836.859	9369.19001
837.044	9332.38338
837.228	9571.53251
837.413	9287.39022
837.598	9643.03045
837.783	9178.96437
837.968	9401.90256
838.152	9348.74254
838.337	9252.61726
838.522	9311.93294
838.707	9324.2034
838.891	9170.77936
839.076	9606.26247
839.261	9358.96648
839.445	9266.93613
839.63	8736.5741
839.815	8798.06696
839.999	8787.81929
840.184	8757.07355
840.368	8789.86886
840.553	9131.89684
840.737	8812.41294
840.922	8961.96847
841.106	8841.10223
841.291	9031.59219
841.475	8732.47399
841.66	8675.06474
841.844	8558.15091
842.029	8545.84064
842.213	8435.01751
842.397	8666.86224
842.582	8381.6383
842.766	8761.17322
842.951	8317.97676
843.135	8465.80729
843.319	8549.94414
843.504	8736.5741
843.688	8644.30382
843.872	8812.41294
844.056	8900.51882
844.241	8875.93447
844.425	8613.53871
844.609	8812.41294
844.793	8650.45634
844.977	8683.26695
845.161	8153.60179
845.346	8383.69159
845.53	8408.32953
845.714	8500.69718
845.898	8209.09249
846.082	8467.85979
846.266	8521.21807
846.45	8529.4259
846.634	8621.74315
846.818	8566.35737
847.002	8352.89024
847.186	8336.46107
847.37	8268.67752
847.554	8404.2234
847.738	8087.81618
847.922	7915.03036
848.106	7764.75344
848.29	7923.26153
848.473	8015.83954
848.657	8157.71271
848.841	8013.7827
849.025	8202.92758
849.209	7783.28672
849.392	8104.26451
849.576	8054.91565
849.76	7950.01054
849.944	8098.09654
850.127	8096.04051
850.311	7933.55002
850.495	7787.405
850.678	7740.03975
850.862	7702.96355
851.046	7494.79733
851.229	7719.4427
851.413	7678.24228
851.596	7620.54748
851.78	7521.60323
851.964	7764.75344
852.147	7515.41758
852.331	7587.57154
852.514	7457.67545
852.698	7643.21528
852.881	7222.40639
853.065	7616.42578
853.248	7354.52225
853.431	7519.54137
853.615	7457.67545
853.798	7482.42414
853.982	7562.83599
854.165	7509.23173
854.348	7362.77651
854.532	7494.79733
854.715	7338.01268
854.898	7527.78869
855.081	7230.66627
855.265	7453.55036
855.448	7135.65621
855.631	6978.57967
855.814	6858.61796
855.997	7216.21124
856.181	7168.70852
856.364	7238.9258
856.547	7059.2009
856.73	7282.28254
856.913	7127.39225
857.096	7243.05543
857.279	7065.40112
857.462	7154.24883
857.645	7073.66777
857.828	6852.41097
858.011	6943.42636
858.194	6910.33493
858.377	7005.45721
858.56	6995.12015
858.743	6630.8939
858.926	6931.01776
859.109	6626.75089
859.292	6782.05076
859.475	6875.16894
859.658	7030.26388
859.841	6726.15767
860.023	6914.47168
860.206	6697.1695
860.389	6811.02581
860.572	6699.24023
860.755	6966.17336
860.937	6899.99267
861.12	7011.65918
861.303	6811.02581
861.486	6933.08591
861.668	6647.46501
861.851	6744.79056
862.034	6398.74297
862.216	6610.17794
862.399	6199.52402
862.581	6477.54107
862.764	6049.96802
862.947	6191.21855
863.129	6247.2732
863.312	6299.16043
863.494	6236.894
863.677	6454.73455
863.859	6122.68407
864.042	6425.704
864.224	6315.76126
864.406	6342.73441
864.589	6093.60111
864.771	6238.96989
864.954	6128.91554
865.136	6170.45323
865.318	6012.55997
865.501	6141.37783
865.683	6095.67862
865.865	6070.74698
866.048	5871.17176
866.23	6153.83928
866.412	5995.93172
866.594	6224.43819
866.777	5790.03223
866.959	5935.64167
867.141	5754.65249
867.323	5956.43358
867.505	5939.80024
867.687	5975.14429
867.869	5889.89116
868.052	6108.14317
868.234	5837.88809
868.416	5954.3545
868.598	5721.34768
868.78	5856.61089
868.962	5669.29681
869.144	5896.13054
869.326	5781.7082
869.508	5891.97098
869.69	5635.97652
869.872	5515.13985
870.054	5665.1321
870.236	5671.37913
870.417	5438.013
870.599	5742.16389
870.781	5596.40083
870.963	5629.72829
871.145	5519.30795
871.327	5858.69109
871.508	5698.44711
871.69	5456.77655
871.872	5185.56305
872.054	5792.11318
872.235	5321.21928
872.417	5463.03064
872.599	5485.96051
872.78	5688.03682
872.962	5575.5681
873.144	5646.38976
873.325	5444.26773
873.507	5427.58798
873.689	5193.91397
873.87	5594.31766
874.052	5262.79485
874.233	5646.38976
874.415	5519.30795
874.596	5563.06733
874.778	5310.78769
874.959	5496.38223
875.141	5400.48019
875.322	5594.31766
875.503	5041.45105
875.685	5277.40268
875.866	5235.663
876.048	5435.92804
876.229	5266.96864
876.41	5456.77655
876.592	5354.59642
876.773	5481.79165
876.954	5281.57613
877.136	5746.32685
877.317	5421.33269
877.498	5613.06531
877.679	5298.26902
877.86	5638.05921
878.042	5125.0077
878.223	5463.03064
878.404	5262.79485
878.585	5544.31458
878.766	5312.87406
878.947	5515.13985
879.128	5308.70131
879.309	5615.14827
879.49	5248.18588
879.672	5506.80337
879.853	5410.90673
880.034	5638.05921
880.215	5308.70131
880.396	5406.73619
880.576	5221.0519
880.757	5583.90147
880.938	5070.7001
881.119	5408.82147
881.3	5283.66283
881.481	5667.21447
881.662	5308.70131
881.843	5308.70131
882.023	5310.78769
882.204	5371.28274
882.385	5287.83614
882.566	5356.6823
882.747	5187.65081
882.927	5652.63742
883.108	5289.92276
883.289	5321.21928
883.469	5385.88204
883.65	5473.45366
883.831	5398.39481
884.011	5698.44711
884.192	5467.19992
884.373	5688.03682
884.553	5702.61106
884.734	5585.98476
884.914	5296.18249
885.095	5463.03064
885.275	5314.9604
885.456	5596.40083
885.636	5387.96756
885.817	5700.5291
885.997	5296.18249
886.178	5773.38379
886.358	5558.90021
886.538	5717.18415
886.719	5471.36911
886.899	5688.03682
887.08	5523.47596
887.26	5817.08273
887.44	5429.67303
887.621	5604.73326
887.801	5129.18456
887.981	5706.77492
888.161	5667.21447
888.342	5533.89557
888.522	5579.73483
888.702	5683.87254
888.882	5402.56555
889.062	5631.81106
889.242	5613.06531
889.423	5529.72779
889.603	5358.76814
889.783	5400.48019
889.963	5196.00164
890.143	5506.80337
890.323	5406.73619
890.503	5463.03064
890.683	5248.18588
890.863	5498.46651
891.043	5496.38223
891.223	5771.30263
891.403	5383.7965
891.583	5660.9673
891.763	5331.65028
891.943	5440.09793
892.122	5492.21361
892.302	5673.46142
892.482	5390.05306
892.662	5467.19992
892.842	5287.83614
893.022	5431.75806
893.201	5275.31592
893.381	5456.77655
893.561	5237.7502
893.741	5406.73619
893.92	5093.67831
894.1	5398.39481
894.28	5302.442
894.459	5120.83075
894.639	5005.92826
894.819	5005.92826
894.998	4930.68153
895.178	5390.05306
895.357	4934.86268
895.537	4968.30862
895.716	4861.67921
895.896	5244.01168
896.075	4840.7645
896.255	5070.7001
896.434	4769.63745
896.614	5139.6263
896.793	5089.50066
896.973	5137.538
897.152	5179.29961
897.331	4985.02938
897.511	5005.92826
897.69	5012.19747
897.87	4853.3136
898.049	5147.97928
898.228	4895.13799
898.407	4968.30862
898.587	4788.46775
898.766	5095.7671
898.945	4721.50721
899.124	4782.19119
899.304	4696.39104
899.483	4754.99038
899.662	4715.22847
899.841	4658.7107
900.02	4554.00502
900.199	4778.0067
900.378	4637.77404
900.557	4648.24265
900.737	4480.67798
900.916	4570.76167
901.095	4212.28267
901.274	4386.36075
901.453	4140.93114
901.632	4499.53609
901.811	4195.49627
901.989	4447.14804
902.168	4352.81508
902.347	4574.95062
902.526	3993.95485
902.705	4245.85139
902.884	4040.15833
903.063	4233.26376
903.242	3970.8494
903.42	4117.84161
903.599	3989.75404
903.778	4035.95842
903.957	3972.94999
904.135	4012.85747
904.314	3851.08191
904.493	4012.85747
904.672	3954.04388
904.85	3947.74148
905.029	3750.17494
905.207	3779.61081
905.386	3480.87384
905.565	3844.77656
905.743	3645.01593
905.922	3977.15113
906.1	3504.02888
906.279	3653.43041
906.457	3181.7723
906.636	3592.4186
906.814	3190.20239
906.993	3409.28995
907.171	3360.85392
907.35	3424.0295
907.528	3065.83246
907.707	3285.02253
907.885	3038.42151
908.063	3270.27496
908.242	3158.58822
908.42	3141.72584
908.598	3042.63875
908.777	2989.91885
908.955	2846.47363
909.133	3190.20239
909.311	2654.40929
909.49	3029.98685
909.668	3110.1061
909.846	3152.26495
910.024	3095.349
910.202	3133.29426
910.38	2941.40819
910.559	3278.70224
910.737	3038.42151
910.915	3162.80366
911.093	2979.37373
911.271	3181.7723
911.449	3101.67357
911.627	3000.46359
911.805	2966.71909
911.983	3228.1345
912.161	3080.59112
912.339	3124.86243
912.517	3076.37444
912.695	3346.11068
912.872	2998.35467
913.05	3230.24168
913.228	2975.15557
913.406	3350.32312
913.584	3139.61797
913.762	3379.80825
913.939	3131.18633
914.117	3392.44369
914.295	3099.56539
914.473	3185.98738
914.65	3164.91135
914.828	3312.40866
915.006	3114.32228
915.184	3367.17219
915.361	3072.15769
915.539	3114.32228
915.716	2728.29321
915.894	3091.13254
916.072	2962.50075
916.249	3080.59112
916.427	2797.94042
916.604	3063.72402
916.782	2844.36364
916.959	3021.55194
917.137	2848.5836
917.314	3185.98738
917.492	2821.15287
917.669	3124.86243
917.847	2726.18246
918.024	2911.87613
918.201	2797.94042
918.379	2992.02783
918.556	2696.6306
918.733	2776.83676
918.911	2441.11763
919.088	2713.51769
919.265	2483.36292
919.442	2852.8035
919.62	2428.44319
919.797	2734.62537
919.974	2348.16302
920.151	2840.14363
920.328	2458.01627
920.506	2787.38876
920.683	2713.51769
920.86	2656.52047
921.037	2453.79168
921.214	2464.35308
921.391	2381.96701
921.568	2709.296
921.745	2415.76837
921.922	2696.6306
922.099	2474.91422
922.276	2673.40951
922.453	2417.88087
922.63	2616.40579
922.807	2316.46947
922.984	2531.9395
923.161	2107.2409
923.338	2413.65586
923.514	2286.88687
923.691	2329.14716
923.868	2109.35472
924.045	2210.80904
924.222	2168.53869
924.399	2143.17489
924.575	1950.79818
924.752	2193.90131
924.929	1959.25546
925.105	2286.88687
925.282	2124.15129
925.459	2111.46854
925.635	2043.82268
925.812	2094.55778
925.989	1872.56406
926.165	2109.35472
926.342	1881.02216
926.518	2126.26506
926.695	1823.92846
926.871	1952.91251
927.048	1847.18928
927.224	1874.67859
927.401	1709.73163
927.577	1935.99772
927.754	1792.20828
927.93	2016.33948
928.107	1728.76519
928.283	1796.43769
928.459	1967.71264
928.636	1756.25761
928.812	1542.65022
928.988	1768.94621
929.165	1612.44534
929.341	1631.48003
929.517	1576.49049
929.693	1787.97885
929.87	1690.69781
930.046	1735.10965
930.222	1381.90676
930.398	1572.26048
930.574	1479.19899
930.751	1656.85933
930.927	1400.94213
931.103	1561.68542
931.279	1322.68619
931.455	1557.45538
931.631	1271.92676
931.807	1597.64047
931.983	1305.76625
932.159	1417.8625
932.335	1096.3971
932.511	1356.52639
932.687	1145.0352
932.863	1195.79036
933.039	1136.57623
933.215	1360.75644
933.391	1225.3985
933.566	1242.31771
933.742	1155.609
933.918	1094.28246
934.094	1054.10521
934.27	1178.87173
934.445	969.52836
934.621	1109.08506
934.797	969.52836
934.973	908.21687
935.148	808.86421
935.324	798.29594
935.5	705.30587
935.675	906.10279
935.851	707.41905
936.027	768.70605
936.202	679.94853
936.378	764.47908
936.553	597.54891
936.729	639.80281
936.904	500.38496
937.08	671.49644
937.255	394.80709
937.431	445.47962
937.606	466.59585
937.782	513.05685
937.957	382.14042
938.133	451.81433
938.308	337.81186
938.483	276.60902
938.659	308.26376
938.834	342.0333
939.009	342.0333
939.185	430.69919
939.36	282.93964
939.535	316.70572
939.71	278.71921
939.886	166.90597
940.061	211.20268
940.236	213.31227
940.411	240.73873
940.586	247.06838
940.761	169.01513
940.937	215.42188
941.112	166.90597
941.287	278.71921
941.462	164.79683
941.637	175.34274
941.812	156.36047
941.987	255.50818
942.162	164.79683
942.337	173.23352
942.512	169.01513
942.687	177.45199
942.862	266.05836
943.037	185.88917
943.212	185.88917
943.386	200.65503
943.561	169.01513
943.736	266.05836
943.911	160.57861
944.086	244.95848
944.26	196.43612
944.435	251.28824
944.61	120.50972
944.785	126.83588
944.959	114.18377
945.134	152.14241
945.309	145.81549
945.483	173.23352
945.658	143.70656
945.833	93.09867
946.007	147.92445
946.182	156.36047
946.357	72.0158
946.531	126.83588
946.706	82.55695
946.88	126.83588
947.055	158.46953
947.229	158.46953
947.404	192.21728
947.578	141.59765
947.752	97.31551
947.927	202.76452
948.101	158.46953
948.276	143.70656
948.45	219.64116
948.624	122.61842
948.799	206.98356
948.973	259.7282
949.147	177.45199
949.321	156.36047
949.496	177.45199
949.67	202.76452
949.844	228.07995
950.018	171.12431
950.193	154.25143
950.367	152.14241
950.541	114.18377
950.715	202.76452
950.889	156.36047
951.063	206.98356
951.237	187.99852
951.411	164.79683
951.585	145.81549
951.759	228.07995
951.933	234.40925
952.107	259.7282
952.281	177.45199
952.455	181.67054
952.629	118.40105
952.803	156.36047
952.977	152.14241
953.151	209.09311
953.325	236.51906
953.499	160.57861
953.672	145.81549
953.846	225.97022
954.02	259.7282
954.194	270.27857
954.368	198.54556
954.541	236.51906
954.715	177.45199
954.889	223.86052
955.062	219.64116
955.236	206.98356
955.41	200.65503
955.583	238.62888
955.757	131.05342
955.93	124.72714
956.104	223.86052
956.278	228.07995
956.451	223.86052
956.625	194.32669
956.798	154.25143
956.972	219.64116
957.145	196.43612
957.319	232.29947
957.492	223.86052
957.665	183.77985
957.839	122.61842
958.012	211.20268
958.185	185.88917
958.359	137.37989
958.532	116.2924
958.705	139.48876
958.879	156.36047
959.052	164.79683
959.225	198.54556
959.398	185.88917
959.572	164.79683
959.745	187.99852
959.918	141.59765
960.091	194.32669
960.264	158.46953
960.438	225.97022
960.611	173.23352
960.784	173.23352
960.957	198.54556
961.13	185.88917
961.303	150.03342
961.476	249.1783
961.649	156.36047
961.822	200.65503
961.995	154.25143
962.168	160.57861
962.341	143.70656
962.514	244.95848
962.686	211.20268
962.859	221.75083
963.032	219.64116
963.205	308.26376
963.378	131.05342
963.551	249.1783
963.723	192.21728
963.896	228.07995
964.069	147.92445
964.242	152.14241
964.414	143.70656
964.587	223.86052
964.76	124.72714
964.932	147.92445
965.105	158.46953
965.278	198.54556
965.45	164.79683
965.623	158.46953
965.795	141.59765
965.968	131.05342
966.14	164.79683
966.313	219.64116
966.485	215.42188
966.658	164.79683
966.83	169.01513
967.003	114.18377
967.175	249.1783
967.348	82.55695
967.52	190.10789
967.692	190.10789
967.865	114.18377
968.037	137.37989
968.209	147.92445
968.382	114.18377
968.554	143.70656
968.726	141.59765
968.898	97.31551
969.071	105.74946
969.243	114.18377
969.415	173.23352
969.587	107.85801
969.759	169.01513
969.932	105.74946
970.104	135.27105
970.276	59.36716
970.448	175.34274
970.62	82.55695
970.792	109.96657
970.964	122.61842
971.136	109.96657
971.308	234.40925
971.48	93.09867
971.652	162.68771
971.824	105.74946
971.996	84.66525
972.168	141.59765
972.339	114.18377
972.511	137.37989
972.683	86.77357
972.855	198.54556
973.027	114.18377
973.199	126.83588
973.37	181.67054
973.542	150.03342
973.714	84.66525
973.886	93.09867
974.057	116.2924
974.229	139.48876
974.401	107.85801
974.572	61.47521
974.744	109.96657
974.915	105.74946
975.087	150.03342
975.259	55.15113
975.43	131.05342
975.602	126.83588
975.773	118.40105
975.945	34.07236
976.116	76.23219
976.288	122.61842
976.459	48.82725
976.63	61.47521
976.802	118.40105
976.973	97.31551
977.145	105.74946
977.316	114.18377
977.487	82.55695
977.659	166.90597
977.83	80.44868
978.001	105.74946
978.172	63.58328
978.344	139.48876
978.515	154.25143
978.686	109.96657
978.857	105.74946
979.028	114.18377
979.2	97.31551
979.371	31.96461
979.542	109.96657
979.713	65.69137
979.884	10.88843
980.055	55.15113
980.226	48.82725
980.397	67.79949
980.568	63.58328
980.739	105.74946
980.91	122.61842
981.081	126.83588
981.252	103.64094
981.423	55.15113
981.594	21.42623
981.765	95.20708
981.936	114.18377
982.106	126.83588
982.277	40.39575
982.448	126.83588
982.619	59.36716
982.79	63.58328
982.96	38.28793
983.131	42.50359
983.302	72.0158
983.472	152.14241
983.643	90.99028
983.814	84.66525
983.984	40.39575
984.155	21.42623
984.326	29.85689
984.496	65.69137
984.667	55.15113
984.837	61.47521
985.008	21.42623
985.178	27.74919
985.349	57.25913
985.519	72.0158
985.69	29.85689
985.86	57.25913
986.031	88.88192
986.201	114.18377
986.371	46.71934
986.542	46.71934
986.712	114.18377
986.882	126.83588
987.053	90.99028
987.223	57.25913
987.393	-54.43236
987.563	-3.86348
987.734	25.64151
987.904	15.10348
988.074	67.79949
988.244	143.70656
988.414	57.25913
988.585	97.31551
988.755	131.05342
988.925	84.66525
989.095	31.96461
989.265	57.25913
989.435	88.88192
989.605	59.36716
989.775	36.18013
989.945	61.47521
990.115	55.15113
990.285	27.74919
990.455	59.36716
990.625	93.09867
990.795	69.90763
990.965	101.53244
991.134	128.94464
991.304	53.04315
991.474	57.25913
991.644	67.79949
991.814	59.36716
991.984	40.39575
992.153	105.74946
992.323	15.10348
992.493	93.09867
992.662	154.25143
992.832	88.88192
993.002	80.44868
993.171	34.07236
993.341	48.82725
993.511	17.21104
993.68	-35.47071
993.85	67.79949
994.019	48.82725
994.189	2.45862
994.358	29.85689
994.528	76.23219
994.697	-18.61421
994.867	84.66525
995.036	63.58328
995.206	-1.75614
995.375	80.44868
995.544	36.18013
995.714	82.55695
995.883	21.42623
996.052	50.93519
996.222	10.88843
996.391	114.18377
996.56	34.07236
996.73	72.0158
996.899	122.61842
997.068	53.04315
997.237	48.82725
997.406	42.50359
997.576	48.82725
997.745	19.31862
997.914	131.05342
998.083	-58.64579
998.252	25.64151
998.421	84.66525
998.59	40.39575
998.759	46.71934
998.928	15.10348
999.097	67.79949
999.266	23.53386
999.435	23.53386
999.604	109.96657
999.773	99.42397
999.942	-16.50703
1000.111	67.79949
1000.28	50.93519
1000.448	63.58328
1000.617	29.85689
1000.786	-24.93558
1000.955	-12.29261
1001.124	12.99594
1001.292	76.23219
1001.461	69.90763
1001.63	57.25913
1001.798	63.58328
1001.967	6.67348
1002.136	-8.0781
1002.304	82.55695
1002.473	65.69137
1002.642	10.88843
1002.81	72.0158
1002.979	59.36716
1003.147	50.93519
1003.316	55.15113
1003.484	46.71934
1003.653	53.04315
1003.821	-22.82848
1003.99	118.40105
1004.158	4.56604
1004.327	29.85689
1004.495	-18.61421
1004.663	0.35123
1004.832	19.31862
1005	31.96461
1005.168	38.28793
1005.337	42.50359
1005.505	59.36716
1005.673	15.10348
1005.842	-8.0781
1006.01	67.79949
1006.178	38.28793
1006.346	67.79949
1006.514	67.79949
1006.683	36.18013
1006.851	72.0158
1007.019	-8.0781
1007.187	-41.79148
1007.355	-43.89836
1007.523	40.39575
1007.691	63.58328
1007.859	-24.93558
1008.027	55.15113
1008.195	34.07236
1008.363	-27.04265
1008.531	82.55695
1008.699	84.66525
1008.867	23.53386
1009.035	-35.47071
1009.203	72.0158
1009.37	59.36716
1009.538	-24.93558
1009.706	-3.86348
1009.874	-5.9708
1010.042	48.82725
1010.209	38.28793
1010.377	101.53244
1010.545	34.07236
1010.713	59.36716
1010.88	8.78094
1011.048	-12.29261
1011.216	6.67348
1011.383	103.64094
1011.551	-3.86348
1011.718	46.71934
1011.886	-64.96574
1012.054	-1.75614
1012.221	48.82725
1012.389	-3.86348
1012.556	21.42623
1012.724	29.85689
1012.891	38.28793
1013.058	-18.61421
1013.226	31.96461
1013.393	10.88843
1013.561	10.88843
1013.728	55.15113
1013.895	-54.43236
1014.063	17.21104
1014.23	4.56604
1014.397	42.50359
1014.565	-22.82848
1014.732	44.61145
1014.899	55.15113
1015.066	-27.04265
1015.233	-58.64579
1015.401	21.42623
1015.568	-18.61421
1015.735	50.93519
1015.902	19.31862
1016.069	63.58328
1016.236	50.93519
1016.403	-12.29261
1016.57	40.39575
1016.737	8.78094
1016.904	31.96461
1017.071	36.18013
1017.238	86.77357
1017.405	38.28793
1017.572	46.71934
1017.739	-1.75614
1017.906	48.82725
1018.073	8.78094
1018.24	-39.68458
1018.407	-35.47071
1018.573	0.35123
1018.74	8.78094
1018.907	72.0158
1019.074	42.50359
1019.241	25.64151
1019.407	-24.93558
1019.574	-1.75614
1019.741	-16.50703
1019.907	6.67348
1020.074	109.96657
1020.241	25.64151
1020.407	-27.04265
1020.574	-3.86348
1020.74	38.28793
1020.907	-88.13691
1021.073	63.58328
1021.24	57.25913
1021.406	57.25913
1021.573	25.64151
1021.739	-12.29261
1021.906	12.99594
1022.072	15.10348
1022.239	-60.75247
1022.405	95.20708
1022.571	-50.21884
1022.738	12.99594
1022.904	21.42623
1023.07	25.64151
1023.237	40.39575
1023.403	38.28793
1023.569	88.88192
1023.735	50.93519
1023.902	8.78094
1024.068	-12.29261
1024.234	29.85689
1024.4	84.66525
1024.566	12.99594
1024.732	42.50359
1024.898	38.28793
1025.065	55.15113
1025.231	6.67348
1025.397	2.45862
1025.563	21.42623
1025.729	48.82725
1025.895	27.74919
1026.061	31.96461
1026.227	12.99594
1026.392	42.50359
1026.558	-37.57766
1026.724	65.69137
1026.89	-8.0781
1027.056	63.58328
1027.222	93.09867
1027.388	46.71934
1027.553	25.64151
1027.719	46.71934
1027.885	40.39575
1028.051	61.47521
1028.216	-48.11204
1028.382	29.85689
1028.548	-35.47071
1028.713	12.99594
1028.879	-16.50703
1029.045	15.10348
1029.21	31.96461
1029.376	-75.49848
1029.541	23.53386
1029.707	-50.21884
1029.873	15.10348
1030.038	88.88192
1030.204	48.82725
1030.369	27.74919
1030.534	44.61145
1030.7	72.0158
1030.865	15.10348
1031.031	-18.61421
1031.196	53.04315
1031.361	31.96461
1031.527	10.88843
1031.692	-86.03057
1031.857	55.15113
1032.023	44.61145
1032.188	65.69137
1032.353	-29.1497
1032.518	-16.50703
1032.684	42.50359
1032.849	63.58328
1033.014	23.53386
1033.179	-3.86348
1033.344	21.42623
1033.509	23.53386
1033.674	-12.29261
1033.839	-33.36373
1034.004	8.78094
1034.17	46.71934
1034.335	74.12398
1034.5	55.15113
1034.664	59.36716
1034.829	0.35123
1034.994	23.53386
1035.159	12.99594
1035.324	4.56604
1035.489	-20.72135
1035.654	38.28793
1035.819	23.53386
1035.984	-8.0781
1036.148	29.85689
1036.313	46.71934
1036.478	-10.18537
1036.643	-20.72135
1036.807	17.21104
1036.972	6.67348
1037.137	55.15113
1037.301	57.25913
1037.466	-31.25673
1037.631	-18.61421
1037.795	103.64094
1037.96	2.45862
1038.124	-12.29261
1038.289	36.18013
1038.454	12.99594
1038.618	-33.36373
1038.783	-41.79148
1038.947	-54.43236
1039.111	0.35123
1039.276	15.10348
1039.44	-1.75614
1039.605	0.35123
1039.769	17.21104
1039.933	80.44868
1040.098	74.12398
1040.262	17.21104
1040.426	-8.0781
1040.591	17.21104
1040.755	-14.39983
1040.919	29.85689
1041.083	-12.29261
1041.248	0.35123
1041.412	-5.9708
1041.576	-12.29261
1041.74	63.58328
1041.904	17.21104
1042.068	-37.57766
1042.232	50.93519
1042.397	-8.0781
1042.561	74.12398
1042.725	50.93519
1042.889	-5.9708
1043.053	40.39575
1043.217	-16.50703
1043.381	114.18377
1043.544	31.96461
1043.708	46.71934
1043.872	48.82725
1044.036	17.21104
1044.2	21.42623
1044.364	-54.43236
1044.528	67.79949
1044.691	-8.0781
1044.855	17.21104
1045.019	-27.04265
1045.183	38.28793
1045.346	48.82725
1045.51	-16.50703
1045.674	-37.57766
1045.837	31.96461
1046.001	-18.61421
1046.165	31.96461
1046.328	-33.36373
1046.492	15.10348
1046.655	44.61145
1046.819	-41.79148
1046.983	-8.0781
1047.146	-3.86348
1047.31	25.64151
1047.473	40.39575
1047.636	42.50359
1047.8	38.28793
1047.963	10.88843
1048.127	82.55695
1048.29	29.85689
