Data from Scatter_Coeff_Baseline_USB4F045381__32__0032.txt Node

Date: Thu Feb 13 19:22:33 EST 2025
User: mmckonesweet
Spectrometer: USB4F04538
Trigger mode: 4
Integration Time (sec): 2.400000E-3
Scans to average: 1
Electric dark correction enabled: true
Nonlinearity correction enabled: true
Boxcar width: 0
XAxis mode: Wavelengths
Number of Pixels in Spectrum: 3648
>>>>>Begin Spectral Data<<<<<
345.52	27.57355
345.736	27.57355
345.952	27.57355
346.168	17.0354
346.384	-18.7898
346.6	-44.07393
346.816	36.00449
347.032	-29.32529
347.248	2.283
347.464	-14.57544
347.68	57.08346
347.896	-1.93175
348.112	10.7128
348.328	-27.21824
348.544	21.25059
348.76	-8.2537
348.975	-1.93175
349.191	-14.57544
349.407	84.48956
349.623	-23.00407
349.839	-75.67402
350.055	-4.03909
350.27	-6.14641
350.486	23.35822
350.702	-75.67402
350.918	12.82031
351.133	0.17561
351.349	48.65159
351.565	27.57355
351.781	-35.64629
351.996	17.0354
352.212	8.60532
352.428	8.60532
352.644	-8.2537
352.859	14.92785
353.075	-44.07393
353.291	31.78897
353.506	-23.00407
353.722	59.19149
353.938	-25.11117
354.153	6.49786
354.369	0.17561
354.584	36.00449
354.8	29.68125
355.016	-14.57544
355.231	-41.96706
355.447	48.65159
355.662	-52.50118
355.878	-35.64629
356.093	65.5157
356.309	48.65159
356.524	-18.7898
356.74	-35.64629
356.955	-25.11117
357.171	-39.86016
357.386	23.35822
357.602	2.283
357.817	-16.68263
358.033	-4.03909
358.248	17.0354
358.464	27.57355
358.679	52.86748
358.895	-12.46822
359.11	-39.86016
359.325	48.65159
359.541	-75.67402
359.756	-20.89695
359.972	-14.57544
360.187	-35.64629
360.402	-81.99334
360.618	-10.36097
360.833	17.0354
361.048	-39.86016
361.264	-10.36097
361.479	-23.00407
361.694	8.60532
361.909	-16.68263
362.125	-73.56752
362.34	8.60532
362.555	-16.68263
362.77	12.82031
362.986	14.92785
363.201	17.0354
363.416	-44.07393
363.631	14.92785
363.847	-18.7898
364.062	36.00449
364.277	27.57355
364.492	-1.93175
364.707	-14.57544
364.922	-48.28761
365.138	19.14299
365.353	-10.36097
365.568	52.86748
365.783	4.39042
365.998	33.89672
366.213	-27.21824
366.428	52.86748
366.643	-65.14129
366.858	-25.11117
367.073	33.89672
367.288	6.49786
367.503	6.49786
367.718	-23.00407
367.933	-8.2537
368.148	31.78897
368.363	-39.86016
368.578	-16.68263
368.793	23.35822
369.008	19.14299
369.223	42.32793
369.438	25.46587
369.653	4.39042
369.868	-44.07393
370.083	-44.07393
370.298	-73.56752
370.513	-39.86016
370.728	-18.7898
370.943	-41.96706
371.157	31.78897
371.372	-6.14641
371.587	-44.07393
371.802	-16.68263
372.017	-67.24789
372.232	-77.78048
372.446	-1.93175
372.661	-10.36097
372.876	-10.36097
373.091	-48.28761
373.306	0.17561
373.52	-20.89695
373.735	4.39042
373.95	-98.84375
374.165	14.92785
374.379	31.78897
374.594	8.60532
374.809	-33.53931
375.023	-29.32529
375.238	27.57355
375.453	57.08346
375.667	23.35822
375.882	-23.00407
376.097	8.60532
376.311	-33.53931
376.526	-1.93175
376.741	-41.96706
376.955	-8.2537
377.17	-58.82135
377.384	-103.05609
377.599	54.97546
377.813	10.7128
378.028	36.00449
378.242	65.5157
378.457	-4.03909
378.672	-12.46822
378.886	10.7128
379.101	-33.53931
379.315	76.05651
379.53	-35.64629
379.744	-35.64629
379.958	-25.11117
380.173	-58.82135
380.387	-10.36097
380.602	-46.18078
380.816	17.0354
381.031	-20.89695
381.245	-52.50118
381.459	10.7128
381.674	2.283
381.888	-6.14641
382.103	46.54368
382.317	-84.09974
382.531	36.00449
382.746	-25.11117
382.96	23.35822
383.174	-16.68263
383.388	40.22009
383.603	71.84011
383.817	-4.03909
384.031	8.60532
384.246	-50.3944
384.46	50.75953
384.674	-67.24789
384.888	42.32793
385.103	-33.53931
385.317	-88.31244
385.531	-41.96706
385.745	44.4358
385.959	8.60532
386.174	31.78897
386.388	31.78897
386.602	-41.96706
386.816	2.283
387.03	-6.14641
387.244	-12.46822
387.458	31.78897
387.672	-10.36097
387.887	-44.07393
388.101	57.08346
388.315	6.49786
388.529	8.60532
388.743	17.0354
388.957	-58.82135
389.171	-52.50118
389.385	14.92785
389.599	48.65159
389.813	4.39042
390.027	-6.14641
390.241	-6.14641
390.455	0.17561
390.669	40.22009
390.883	40.22009
391.097	65.5157
391.311	-27.21824
391.525	-1.93175
391.738	65.5157
391.952	36.00449
392.166	23.35822
392.38	19.14299
392.594	17.0354
392.808	52.86748
393.022	46.54368
393.236	38.11228
393.449	-8.2537
393.663	12.82031
393.877	-6.14641
394.091	6.49786
394.305	-69.35446
394.518	27.57355
394.732	6.49786
394.946	73.9483
395.16	19.14299
395.373	-14.57544
395.587	6.49786
395.801	-6.14641
396.015	-48.28761
396.228	-73.56752
396.442	-8.2537
396.656	-12.46822
396.869	10.7128
397.083	40.22009
397.297	17.0354
397.51	-27.21824
397.724	50.75953
397.938	73.9483
398.151	14.92785
398.365	36.00449
398.578	-10.36097
398.792	-8.2537
399.005	25.46587
399.219	-1.93175
399.433	90.81458
399.646	14.92785
399.86	38.11228
400.073	44.4358
400.287	40.22009
400.5	67.62381
400.714	-41.96706
400.927	-37.75323
401.141	-63.03467
401.354	-6.14641
401.567	57.08346
401.781	14.92785
401.994	27.57355
402.208	-52.50118
402.421	10.7128
402.635	44.4358
402.848	-69.35446
403.061	-14.57544
403.275	14.92785
403.488	-29.32529
403.701	-77.78048
403.915	-27.21824
404.128	-58.82135
404.341	-18.7898
404.555	14.92785
404.768	31.78897
404.981	6.49786
405.195	21.25059
405.408	-1.93175
405.621	-37.75323
405.834	-10.36097
406.048	-1.93175
406.261	2.283
406.474	-33.53931
406.687	12.82031
406.9	25.46587
407.114	48.65159
407.327	42.32793
407.54	29.68125
407.753	19.14299
407.966	-44.07393
408.179	17.0354
408.392	-44.07393
408.605	-27.21824
408.819	17.0354
409.032	-71.461
409.245	14.92785
409.458	69.73195
409.671	31.78897
409.884	46.54368
410.097	8.60532
410.31	-44.07393
410.523	-6.14641
410.736	4.39042
410.949	44.4358
411.162	2.283
411.375	52.86748
411.588	29.68125
411.801	-14.57544
412.014	19.14299
412.227	-63.03467
412.44	48.65159
412.653	-52.50118
412.865	-67.24789
413.078	31.78897
413.291	6.49786
413.504	-67.24789
413.717	61.29953
413.93	40.22009
414.143	-79.88693
414.356	-52.50118
414.568	-1.93175
414.781	-8.2537
414.994	46.54368
415.207	23.35822
415.42	-23.00407
415.632	-35.64629
415.845	27.57355
416.058	48.65159
416.271	12.82031
416.483	50.75953
416.696	-10.36097
416.909	52.86748
417.121	2.283
417.334	10.7128
417.547	8.60532
417.759	-48.28761
417.972	27.57355
418.185	-44.07393
418.397	44.4358
418.61	10.7128
418.823	-39.86016
419.035	6.49786
419.248	19.14299
419.46	-65.14129
419.673	36.00449
419.885	-81.99334
420.098	-58.82135
420.311	-18.7898
420.523	-27.21824
420.736	-14.57544
420.948	-18.7898
421.161	67.62381
421.373	6.49786
421.586	78.16474
421.798	-33.53931
422.01	31.78897
422.223	-10.36097
422.435	52.86748
422.648	78.16474
422.86	40.22009
423.073	48.65159
423.285	33.89672
423.497	-10.36097
423.71	-48.28761
423.922	48.65159
424.134	-65.14129
424.347	-12.46822
424.559	17.0354
424.771	57.08346
424.984	-16.68263
425.196	46.54368
425.408	10.7128
425.621	-10.36097
425.833	-10.36097
426.045	33.89672
426.257	-20.89695
426.47	6.49786
426.682	-50.3944
426.894	61.29953
427.106	-27.21824
427.318	-52.50118
427.531	-1.93175
427.743	71.84011
427.955	59.19149
428.167	6.49786
428.379	-56.71465
428.591	14.92785
428.804	-16.68263
429.016	40.22009
429.228	65.5157
429.44	-16.68263
429.652	-48.28761
429.864	-10.36097
430.076	0.17561
430.288	40.22009
430.5	23.35822
430.712	19.14299
430.924	-23.00407
431.136	92.92297
431.348	-1.93175
431.56	-1.93175
431.772	-14.57544
431.984	-44.07393
432.196	19.14299
432.408	109.79086
432.62	-58.82135
432.832	6.49786
433.044	27.57355
433.256	69.73195
433.468	61.29953
433.679	50.75953
433.891	8.60532
434.103	65.5157
434.315	-6.14641
434.527	48.65159
434.739	2.283
434.95	-27.21824
435.162	2.283
435.374	-41.96706
435.586	73.9483
435.798	-33.53931
436.009	44.4358
436.221	71.84011
436.433	36.00449
436.645	-18.7898
436.856	36.00449
437.068	23.35822
437.28	-56.71465
437.491	71.84011
437.703	14.92785
437.915	40.22009
438.126	-71.461
438.338	19.14299
438.55	-20.89695
438.761	-35.64629
438.973	-39.86016
439.184	42.32793
439.396	27.57355
439.608	6.49786
439.819	-18.7898
440.031	-12.46822
440.242	40.22009
440.454	6.49786
440.665	14.92785
440.877	-54.60793
441.088	-10.36097
441.3	8.60532
441.511	-25.11117
441.723	8.60532
441.934	-6.14641
442.146	61.29953
442.357	-12.46822
442.569	48.65159
442.78	8.60532
442.991	17.0354
443.203	36.00449
443.414	59.19149
443.626	29.68125
443.837	-8.2537
444.048	23.35822
444.26	31.78897
444.471	-10.36097
444.682	-27.21824
444.894	-1.93175
445.105	23.35822
445.316	8.60532
445.528	-44.07393
445.739	-56.71465
445.95	-35.64629
446.161	90.81458
446.373	-67.24789
446.584	-60.92802
446.795	42.32793
447.006	31.78897
447.217	14.92785
447.429	14.92785
447.64	57.08346
447.851	40.22009
448.062	-6.14641
448.273	-33.53931
448.484	57.08346
448.695	57.08346
448.907	82.38126
449.118	12.82031
449.329	31.78897
449.54	-69.35446
449.751	31.78897
449.962	33.89672
450.173	23.35822
450.384	-90.41875
450.595	31.78897
450.806	-31.43231
451.017	-18.7898
451.228	46.54368
451.439	78.16474
451.65	6.49786
451.861	-41.96706
452.072	19.14299
452.283	2.283
452.494	-10.36097
452.705	76.05651
452.915	59.19149
453.126	-23.00407
453.337	-35.64629
453.548	-35.64629
453.759	-25.11117
453.97	19.14299
454.181	-6.14641
454.391	57.08346
454.602	19.14299
454.813	-23.00407
455.024	-33.53931
455.235	95.03138
455.445	-10.36097
455.656	48.65159
455.867	-27.21824
456.078	-35.64629
456.288	-33.53931
456.499	-6.14641
456.71	6.49786
456.921	-1.93175
457.131	-12.46822
457.342	-31.43231
457.553	-8.2537
457.763	31.78897
457.974	25.46587
458.184	50.75953
458.395	-33.53931
458.606	-25.11117
458.816	48.65159
459.027	38.11228
459.237	-6.14641
459.448	82.38126
459.659	-60.92802
459.869	38.11228
460.08	36.00449
460.29	31.78897
460.501	44.4358
460.711	36.00449
460.922	71.84011
461.132	-1.93175
461.343	-10.36097
461.553	31.78897
461.764	44.4358
461.974	-23.00407
462.184	-75.67402
462.395	-33.53931
462.605	40.22009
462.816	44.4358
463.026	31.78897
463.236	-1.93175
463.447	31.78897
463.657	31.78897
463.867	-1.93175
464.078	-1.93175
464.288	-1.93175
464.498	-10.36097
464.709	-52.50118
464.919	-1.93175
465.129	25.46587
465.339	-31.43231
465.55	78.16474
465.76	-16.68263
465.97	-48.28761
466.18	19.14299
466.391	-25.11117
466.601	-33.53931
466.811	46.54368
467.021	0.17561
467.231	-37.75323
467.441	65.5157
467.651	31.78897
467.862	-23.00407
468.072	-41.96706
468.282	-18.7898
468.492	40.22009
468.702	-20.89695
468.912	61.29953
469.122	0.17561
469.332	33.89672
469.542	2.283
469.752	-16.68263
469.962	57.08346
470.172	82.38126
470.382	25.46587
470.592	52.86748
470.802	-14.57544
471.012	101.35674
471.222	65.5157
471.432	14.92785
471.642	2.283
471.852	57.08346
472.062	82.38126
472.272	-48.28761
472.482	-10.36097
472.691	17.0354
472.901	57.08346
473.111	17.0354
473.321	36.00449
473.531	44.4358
473.741	14.92785
473.95	-23.00407
474.16	52.86748
474.37	40.22009
474.58	-14.57544
474.79	40.22009
474.999	17.0354
475.209	90.81458
475.419	-10.36097
475.628	4.39042
475.838	-31.43231
476.048	40.22009
476.258	50.75953
476.467	23.35822
476.677	-10.36097
476.886	-8.2537
477.096	105.57375
477.306	40.22009
477.515	-18.7898
477.725	65.5157
477.935	10.7128
478.144	59.19149
478.354	25.46587
478.563	2.283
478.773	42.32793
478.982	-8.2537
479.192	59.19149
479.401	-10.36097
479.611	-10.36097
479.82	4.39042
480.03	19.14299
480.239	82.38126
480.449	67.62381
480.658	103.46523
480.868	-25.11117
481.077	52.86748
481.287	65.5157
481.496	31.78897
481.705	73.9483
481.915	27.57355
482.124	31.78897
482.333	52.86748
482.543	-33.53931
482.752	25.46587
482.961	2.283
483.171	25.46587
483.38	59.19149
483.589	-23.00407
483.799	23.35822
484.008	86.59788
484.217	14.92785
484.426	-1.93175
484.636	90.81458
484.845	86.59788
485.054	109.79086
485.263	38.11228
485.472	-10.36097
485.682	31.78897
485.891	52.86748
486.1	-33.53931
486.309	23.35822
486.518	57.08346
486.727	42.32793
486.936	27.57355
487.146	111.89944
487.355	10.7128
487.564	71.84011
487.773	-1.93175
487.982	-65.14129
488.191	29.68125
488.4	42.32793
488.609	27.57355
488.818	65.5157
489.027	31.78897
489.236	6.49786
489.445	90.81458
489.654	99.24826
489.863	82.38126
490.072	59.19149
490.281	54.97546
490.49	46.54368
490.698	42.32793
490.907	78.16474
491.116	111.89944
491.325	82.38126
491.534	36.00449
491.743	116.11668
491.952	99.24826
492.16	25.46587
492.369	-12.46822
492.578	82.38126
492.787	82.38126
492.996	57.08346
493.204	23.35822
493.413	50.75953
493.622	82.38126
493.831	-10.36097
494.039	14.92785
494.248	40.22009
494.457	95.03138
494.665	-10.36097
494.874	86.59788
495.083	101.35674
495.291	118.22533
495.5	82.38126
495.709	46.54368
495.917	86.59788
496.126	4.39042
496.335	103.46523
496.543	103.46523
496.752	40.22009
496.96	126.66015
497.169	84.48956
497.377	48.65159
497.586	80.27299
497.794	14.92785
498.003	128.76891
498.211	105.57375
498.42	31.78897
498.628	67.62381
498.837	84.48956
499.045	137.20416
499.254	114.00805
499.462	99.24826
499.671	31.78897
499.879	31.78897
500.087	105.57375
500.296	128.76891
500.504	67.62381
500.713	63.4076
500.921	65.5157
501.129	128.76891
501.338	0.17561
501.546	44.4358
501.754	31.78897
501.962	27.57355
502.171	111.89944
502.379	107.68229
502.587	154.07568
502.795	67.62381
503.004	109.79086
503.212	158.29377
503.42	145.63975
503.628	23.35822
503.837	69.73195
504.045	135.09531
504.253	120.334
504.461	95.03138
504.669	111.89944
504.877	158.29377
505.085	82.38126
505.294	181.49477
505.502	162.51195
505.71	109.79086
505.918	61.29953
506.126	166.73021
506.334	143.53082
506.542	111.89944
506.75	135.09531
506.958	170.94855
507.166	170.94855
507.374	130.87769
507.582	92.92297
507.79	173.05775
507.998	175.16697
508.206	126.66015
508.414	111.89944
508.622	116.11668
508.83	154.07568
509.037	168.83937
509.245	162.51195
509.453	145.63975
509.661	97.13981
509.869	107.68229
510.077	158.29377
510.285	181.49477
510.492	46.54368
510.7	175.16697
510.908	141.42191
511.116	143.53082
511.324	145.63975
511.531	109.79086
511.739	189.93211
511.947	198.36978
512.155	158.29377
512.362	194.1509
512.57	166.73021
512.778	57.08346
512.985	156.18471
513.193	257.44235
513.401	236.34324
513.608	173.05775
513.816	192.04149
514.024	225.79441
514.231	149.85767
514.439	179.38548
514.646	135.09531
514.854	147.7487
515.061	143.53082
515.269	225.79441
515.477	162.51195
515.684	238.45306
515.892	217.35571
516.099	204.69824
516.307	236.34324
516.514	128.76891
516.722	183.60407
516.929	238.45306
517.136	227.90414
517.344	272.21286
517.551	200.47924
517.759	217.35571
517.966	204.69824
518.173	232.12365
518.381	244.78265
518.588	225.79441
518.796	211.02688
519.003	267.99262
519.21	272.21286
519.418	183.60407
519.625	272.21286
519.832	280.65356
520.039	175.16697
520.247	198.36978
520.454	265.88252
520.661	267.99262
520.868	303.86702
521.076	274.323
521.283	246.89255
521.49	308.08789
521.697	314.41933
521.904	310.19835
522.112	196.26033
522.319	295.42551
522.526	242.67277
522.733	331.30395
522.94	284.87402
523.147	335.52528
523.354	343.96815
523.561	299.64623
523.768	301.75662
523.975	360.85473
524.183	286.98428
524.39	356.63299
524.597	261.6624
524.804	407.29842
525.011	320.75093
525.218	293.31517
525.425	362.96564
525.632	261.6624
525.838	314.41933
526.045	405.18717
526.252	358.74385
526.459	305.97745
526.666	303.86702
526.873	394.63116
527.08	331.30395
527.287	369.29844
527.494	430.52323
527.701	419.96626
527.907	354.52214
528.114	428.41181
528.321	392.52001
528.528	436.85761
528.735	411.52097
528.941	419.96626
529.148	327.08269
529.355	481.20214
529.562	394.63116
529.768	362.96564
529.975	360.85473
530.182	449.52678
530.388	409.40968
530.595	525.55324
530.802	422.07762
531.008	479.09034
531.215	417.85491
531.422	415.74358
531.628	479.09034
531.835	356.63299
532.042	512.88085
532.248	506.54484
532.455	489.64947
532.661	548.78728
532.868	441.0806
533.074	599.48543
533.281	470.64331
533.487	567.79819
533.694	470.64331
533.9	605.82323
534.107	576.24783
534.313	578.36028
534.52	563.57345
534.726	679.77244
534.933	523.44114
535.139	641.73957
535.345	531.88963
535.552	626.95005
535.758	538.22615
535.965	563.57345
536.171	620.61188
536.377	664.98142
536.584	643.8524
536.79	485.42577
536.996	593.14775
537.203	662.86847
537.409	675.54638
537.615	610.0485
537.821	529.77749
538.028	645.96525
538.234	593.14775
538.44	745.2821
538.646	669.20737
538.853	660.75553
539.059	705.12977
539.265	690.3378
539.471	681.88549
539.677	622.72459
539.883	724.14881
540.09	675.54638
540.296	715.6958
540.502	751.6223
540.708	715.6958
540.914	853.07732
541.12	842.5081
541.326	785.43819
541.532	726.26209
541.738	827.71155
541.944	698.79028
542.15	910.15478
542.356	878.44434
542.562	855.19119
542.768	700.90343
542.974	808.68807
543.18	859.41896
543.386	859.41896
543.592	757.96258
543.798	895.35635
544.004	863.64677
544.21	956.66654
544.415	863.64677
544.621	867.8746
544.827	774.87045
545.033	977.8094
545.239	791.77895
545.445	1102.56484
545.651	834.05287
545.856	1043.35637
546.062	1011.63935
546.268	918.61119
546.474	960.89506
546.679	929.18188
546.885	905.92662
547.091	994.72417
547.297	971.46647
547.502	969.35217
547.708	1070.8455
547.914	1028.55493
548.119	1037.01286
548.325	1028.55493
548.531	1003.18171
548.736	1032.78388
548.942	1022.21154
549.147	1104.6795
549.353	977.8094
549.559	1009.52493
549.764	988.38108
549.97	1157.54755
550.175	1087.76234
550.381	1153.318
550.586	1077.18928
550.792	1223.10737
550.997	1062.38721
551.203	1087.76234
551.408	1214.64785
551.614	1199.84382
551.819	1157.54755
552.025	1206.18839
552.23	1058.1581
552.435	1256.94593
552.641	1233.68184
552.846	1210.41811
553.052	1244.25639
553.257	1292.90013
553.462	1206.18839
553.668	1432.4916
553.873	1206.18839
554.078	1356.35014
554.283	1212.53298
554.489	1472.67759
554.694	1275.98042
554.899	1443.06686
555.105	1233.68184
555.31	1409.22606
555.515	1375.3854
555.72	1479.02274
555.925	1142.74422
556.131	1311.93497
556.336	1290.78516
556.541	1523.43867
556.746	1430.37655
556.951	1404.99596
557.156	1419.8013
557.361	1548.81904
557.567	1377.50044
557.772	1694.75133
557.977	1409.22606
558.182	1421.91635
558.387	1466.33243
558.592	1586.88925
558.797	1428.2615
559.002	1557.27913
559.207	1288.67019
559.412	1472.67759
559.617	1443.06686
559.822	1519.2086
560.027	1468.44748
560.232	1610.15412
560.437	1517.09356
560.642	1578.42925
560.847	1756.08138
561.051	1633.41874
561.256	1576.31424
561.461	1800.49086
561.666	1546.70402
561.871	1667.25769
562.076	1487.48294
562.281	1798.37617
562.485	1643.99348
562.69	1772.99949
562.895	1648.22336
563.1	1804.72024
563.305	1705.32568
563.509	1724.3593
563.714	1709.55539
563.919	1821.63759
564.123	1618.61401
564.328	1772.99949
564.533	1694.75133
564.737	1728.58895
564.942	1637.64864
565.147	1866.04422
565.351	1766.65523
565.556	1764.54046
565.761	1641.87854
565.965	1925.24959
566.17	1715.89994
566.374	1785.6879
566.579	1701.09595
566.784	1872.38785
566.988	1730.70378
567.193	1967.53645
567.397	1999.25
567.602	1882.96046
567.806	1811.06428
568.011	1899.87637
568.215	1984.45052
568.42	1992.9074
568.624	1929.47838
568.828	1904.1053
569.033	1825.86688
569.237	1965.42216
569.442	1897.7619
569.646	1885.07497
569.85	1988.67897
570.055	2172.58974
570.259	2073.2425
570.463	2083.81215
570.668	1851.24224
570.872	2081.69824
571.076	2003.47836
571.281	2014.04916
571.485	2037.30433
571.689	2170.47615
571.893	2098.60936
572.098	2284.59767
572.302	2060.55867
572.506	2162.02171
572.71	2014.04916
572.914	2276.14511
573.119	2011.93502
573.323	2147.22613
573.527	2028.848
573.731	2191.61167
573.935	1992.9074
574.139	2202.17912
574.343	2153.56714
574.547	2352.21259
574.751	2246.56003
574.955	2576.11071
575.159	2138.77134
575.364	2305.72839
575.568	2121.86137
575.772	2333.1969
575.976	2221.19998
576.18	2356.43819
576.383	2276.14511
576.587	2470.51378
576.791	2176.8169
576.995	2451.50334
577.199	2331.08399
577.403	2449.39101
577.607	2322.63228
577.811	2573.99906
578.015	2331.08399
578.219	2548.65829
578.422	2415.59233
578.626	2373.34019
578.83	2286.71078
579.034	2485.29906
579.238	2409.25477
579.442	2451.50334
579.645	2407.14224
579.849	2595.11505
580.053	2472.626
580.257	2578.22235
580.46	2436.71683
580.664	2620.45265
580.868	2462.0648
581.071	2647.89971
581.275	2510.64399
581.479	2707.00922
581.682	2597.22659
581.886	2861.06731
582.09	2660.56688
582.293	2829.41751
582.497	2658.45572
582.7	2643.67723
582.904	2643.67723
583.107	2736.56018
583.311	2584.55721
583.515	2877.94591
583.718	2563.44061
583.922	2713.34179
584.125	2675.34466
584.329	2920.13837
584.532	2664.78916
584.735	2909.5908
584.939	2626.78678
585.142	2850.51773
585.346	2728.11731
585.549	2993.96104
585.753	2829.41751
585.956	2924.3573
586.159	2778.77132
586.363	2991.85208
586.566	2728.11731
586.769	3044.57163
586.973	2894.82358
587.176	2911.70034
587.379	2818.86687
587.582	3074.09038
587.786	2865.28705
587.989	3211.10083
588.192	2909.5908
588.395	2964.43416
588.599	2958.10659
588.802	3036.13715
589.005	2972.87072
589.208	3267.99252
589.411	2991.85208
589.615	3198.45659
589.818	3114.1466
590.021	3208.9935
590.224	2972.87072
590.427	3038.24579
590.63	3044.57163
590.833	3276.41988
591.036	3057.2229
591.239	3396.47988
591.442	2977.0889
591.645	3185.81175
591.848	3227.9589
592.051	3225.8517
592.254	2981.30703
592.457	3286.9537
592.66	3143.65804
592.863	3362.78452
593.066	3227.9589
593.269	3394.37405
593.472	3107.82232
593.675	3503.85347
593.878	3217.42273
594.081	3398.58569
594.284	3244.8159
594.486	3413.32587
594.689	3337.51006
594.892	3501.74855
595.095	3324.8719
595.298	3495.4337
595.5	3301.70032
595.703	3453.33053
595.906	3398.58569
596.109	3579.61814
596.311	3322.76548
596.514	3674.29
596.717	3531.21568
596.92	3667.97974
597.122	3413.32587
597.325	3613.28361
597.528	3470.17267
597.73	3615.38755
597.933	3470.17267
598.136	3716.35404
598.338	3430.17072
598.541	3691.11654
598.743	3491.22371
598.946	3533.32034
599.148	3512.27294
599.351	3655.35869
599.554	3617.49146
599.756	3794.15212
599.959	3577.51389
600.161	3840.39774
600.363	3676.39338
600.566	3819.37819
600.768	3686.91002
600.971	3934.96104
601.173	3377.52679
601.376	3997.98055
601.578	3720.56002
601.78	3857.21195
601.983	3663.7728
602.185	3806.76551
602.388	3623.80309
602.59	3857.21195
602.792	3674.29
602.995	4084.07737
603.197	3606.9717
603.399	3995.88019
603.601	3800.4589
603.804	3976.97608
604.006	3871.92334
604.208	4004.28149
604.41	3815.17404
604.613	3970.67434
604.815	3798.35666
605.017	3983.27764
605.219	3979.07662
605.421	3878.22792
605.623	3974.87552
605.826	4254.0679
606.028	3756.30773
606.23	3897.14059
606.432	3983.27764
606.634	4168.0406
606.836	3651.15152
607.038	4472.12139
607.24	4100.87269
607.442	4056.78214
607.644	4004.28149
607.846	4180.63219
608.048	3987.47857
608.25	4186.92769
608.452	4182.73071
608.654	4138.65728
608.856	3926.55706
609.058	4128.16224
609.26	3823.58225
609.462	4067.28072
609.664	3918.15276
609.866	4056.78214
610.067	3911.84932
610.269	4000.08088
610.471	3974.87552
610.673	4245.67657
610.875	4050.48274
611.077	4176.43508
611.278	4117.66668
611.48	4279.23985
611.682	4014.78265
611.884	4495.17094
612.085	4088.27633
612.287	4235.18692
612.489	3918.15276
612.69	4310.70044
612.892	4226.79482
613.094	4344.25306
613.295	4186.92769
613.497	4369.41389
613.699	4123.96408
613.9	4356.83387
614.102	4306.50597
614.304	4457.45211
614.505	4088.27633
614.707	4423.91829
614.908	3979.07662
615.11	4490.98031
615.311	4254.0679
615.513	4321.18623
615.714	4184.82921
615.916	4620.84859
616.117	4224.69674
616.319	4583.1537
616.52	4184.82921
616.722	4453.26069
616.923	4268.75191
617.124	4612.47258
617.326	4306.50597
617.527	4539.16721
617.729	4272.94715
617.93	4486.7896
618.131	4392.47524
618.333	4449.06918
618.534	4170.13925
618.735	4461.64344
618.937	4260.36118
619.138	4346.34992
619.339	4369.41389
619.54	4578.96494
619.742	4268.75191
619.943	4505.64713
620.144	4415.53395
620.345	4432.30227
620.546	4163.84324
620.748	4595.71947
620.949	4352.64035
621.15	4604.0962
621.351	4461.64344
621.552	4551.73578
621.753	4488.88497
621.954	4578.96494
622.155	4528.69279
622.356	4771.55543
622.558	4583.1537
622.759	4802.93794
622.96	4361.02729
623.161	4568.49263
623.362	4386.18604
623.563	4677.37734
623.764	4532.88263
623.965	4474.21692
624.166	4440.6859
624.366	4675.28397
624.567	4444.87758
624.768	4490.98031
624.969	4428.11032
625.17	4888.69066
625.371	4371.51049
625.572	4507.7423
625.773	4461.64344
625.973	4800.84593
626.174	4643.88079
626.375	4717.147
626.576	4712.9611
626.777	4784.10905
626.977	4497.26622
627.178	4763.1859
627.379	4595.71947
627.58	4738.07513
627.78	4719.23991
627.981	4738.07513
628.182	4574.77608
628.382	4742.26048
628.583	4763.1859
628.784	4723.42567
628.984	4694.12345
629.185	5032.91922
629.386	4532.88263
629.586	4951.41219
629.787	4767.37071
629.987	4989.03518
630.188	4543.35682
630.388	5028.74023
630.589	4863.59628
630.79	4817.58137
630.99	4562.20898
631.191	4735.98242
631.391	4848.95637
631.591	5018.29234
631.792	4930.50731
631.992	5248.01196
632.193	4798.7539
632.393	4932.5979
632.594	4905.41842
632.794	4857.32217
632.994	4773.64776
633.195	4957.68321
633.395	4771.55543
633.595	5039.18754
633.796	4821.765
633.996	5078.88205
634.196	4838.4986
634.397	5245.92487
634.597	4905.41842
634.797	5122.7452
634.997	5068.43694
635.198	5030.82974
635.398	5089.32659
635.598	5099.77054
635.798	4953.50255
635.998	5007.84387
636.199	4997.39483
636.399	5245.92487
636.599	5062.16959
636.799	5191.6523
636.999	4903.32753
637.199	5085.14884
637.399	5151.98161
637.599	5089.32659
637.799	4899.14568
637.999	5179.12562
638.199	5110.21392
638.399	5233.40183
638.599	5091.41543
638.799	5396.13562
638.999	5185.38906
639.199	5333.56257
639.399	4932.5979
639.599	5231.31457
639.799	5062.16959
639.999	5398.22103
640.199	5012.02333
640.399	5289.74888
640.599	5016.20269
640.799	5285.57561
640.998	5080.97101
641.198	5268.88159
641.398	5172.86197
641.598	5289.74888
641.798	5270.96842
641.997	5427.41423
642.197	5427.41423
642.397	5414.90342
642.597	5383.6227
642.796	5514.96618
642.996	5206.2657
643.196	5410.73296
643.395	5254.27309
643.595	5214.6157
643.795	5304.35459
643.994	5460.77225
644.194	5225.05267
644.394	5287.66225
644.593	5502.4613
644.793	5577.47786
644.992	5327.3041
645.192	5337.73476
645.392	5293.92206
645.591	5760.72303
645.791	5364.85174
645.99	5458.68755
646.19	5308.52744
646.389	5460.77225
646.589	5419.07378
646.788	5614.97469
646.987	5475.36449
647.187	5506.62969
647.386	5421.15893
647.586	5771.1292
647.785	5506.62969
647.984	5835.63429
648.184	5637.88566
648.383	5500.37707
648.582	5552.47573
648.782	5623.30628
648.981	5481.61795
649.18	5652.46388
649.38	5573.31108
649.579	5875.15846
649.778	5614.97469
649.977	5700.3556
650.177	5500.37707
650.376	5694.10956
650.575	5383.6227
650.774	5900.1167
650.973	5608.72575
651.173	5735.74581
651.372	5698.27361
651.571	5852.27708
651.77	5579.56122
651.969	5783.61583
652.168	5504.5455
652.367	5766.9668
652.566	5527.47021
652.765	5800.26334
652.964	5696.1916
653.163	6031.09177
653.362	5642.05098
653.561	5862.67806
653.76	5623.30628
653.959	5839.79513
654.158	5583.72786
654.357	5679.53465
654.556	5829.39285
654.755	5925.07155
654.954	5608.72575
655.153	5748.23485
655.352	5656.62887
655.551	5623.30628
655.749	5592.06087
655.948	5816.90934
656.147	5785.69685
656.346	5756.5604
656.545	5893.87746
656.743	5952.10213
656.942	5812.74798
657.141	6371.60515
657.34	5995.7585
657.538	6099.66044
657.737	5956.26033
657.936	6085.11771
658.135	6064.34039
658.333	6031.09177
658.532	5804.42498
658.731	6060.18464
658.929	5702.43757
659.128	6031.09177
659.326	5725.33763
659.525	6051.87286
659.724	5850.19682
659.922	6020.70034
660.121	5756.5604
660.319	5827.31233
660.518	5585.81115
660.716	6130.81955
660.915	5873.07845
661.113	6164.05011
661.312	5906.35573
661.51	6141.20475
661.709	5637.88566
661.907	6186.89263
662.105	6039.40449
662.304	6166.12682
662.502	6039.40449
662.701	6155.74304
662.899	5929.23036
663.097	6408.94023
663.296	5925.07155
663.494	6172.35681
663.692	5868.91836
663.891	6238.7969
664.089	5835.63429
664.287	6089.2729
664.485	6080.96244
664.684	6022.77867
664.882	6168.20351
665.08	6016.5436
665.278	5979.12873
665.476	6220.11305
665.675	6147.43559
665.873	6340.4868
666.071	6105.89269
666.269	6220.11305
666.467	6024.85698
666.665	6193.12192
666.863	6039.40449
667.061	6182.73966
667.259	5997.83712
667.457	6143.28172
667.655	6006.15135
667.853	6137.05074
668.051	5956.26033
668.249	6114.20202
668.447	5956.26033
668.645	6377.82819
668.843	6066.41822
669.041	6205.57986
669.239	5794.0207
669.437	6180.66314
669.635	6041.48261
669.833	6415.16201
670.031	5806.50577
670.229	6089.2729
670.426	6006.15135
670.624	6317.66334
670.822	6085.11771
671.02	6375.75386
671.218	6153.66621
671.415	6132.89664
671.613	5902.1964
671.811	6346.71089
672.009	6176.51002
672.206	6205.57986
672.404	6186.89263
672.602	6328.03799
672.799	6247.10022
672.997	6348.78554
673.195	6053.95084
673.392	6224.26518
673.59	6224.26518
673.788	6437.97342
673.985	6199.35099
674.183	6417.2359
674.38	6170.28017
674.578	6159.89662
674.775	5825.23178
674.973	6282.38516
675.17	6166.12682
675.368	5918.83315
675.565	6323.8882
675.763	6224.26518
675.96	6321.81327
676.158	6269.93243
676.355	6321.81327
676.553	6155.74304
676.75	6122.51098
676.947	6560.27753
677.145	6085.11771
677.342	6467.00204
677.539	5993.67986
677.737	6330.11285
677.934	6224.26518
678.131	6296.91229
678.329	6282.38516
678.526	6421.38359
678.723	6180.66314
678.92	6371.60515
679.118	5935.4684
679.315	6180.66314
679.512	6257.47885
679.709	6485.6609
679.906	6321.81327
680.104	6450.41482
680.301	6070.57383
680.498	6317.66334
680.695	6026.93527
680.892	6267.85689
681.089	6060.18464
681.286	6377.82819
681.483	6099.66044
681.68	6170.28017
681.877	6340.4868
682.075	6323.8882
682.272	6188.96909
682.469	6483.58779
682.665	6265.78133
682.862	6172.35681
683.059	5993.67986
683.256	6176.51002
683.453	6070.57383
683.65	6292.7618
683.847	6269.93243
684.044	6164.05011
684.241	6099.66044
684.438	6541.62619
684.635	6323.8882
684.831	6230.4932
685.028	6072.6516
685.225	6105.89269
685.422	6172.35681
685.619	6103.8153
685.815	6101.73788
686.012	6193.12192
686.209	6180.66314
686.405	6381.97676
686.602	6155.74304
686.799	6213.88468
686.996	6130.81955
687.192	6064.34039
687.389	5848.11653
687.586	6226.34121
687.782	5987.44381
687.979	6338.41206
688.175	5966.65541
688.372	6184.81616
688.568	5922.9921
688.765	6159.89662
688.962	6164.05011
689.158	6253.32747
689.355	6205.57986
689.551	6280.30977
689.748	6230.4932
689.944	6367.45634
690.14	6255.40317
690.337	6280.30977
690.533	6301.06269
690.73	6230.4932
690.926	5991.6012
691.123	5979.12873
691.319	6070.57383
691.515	6145.35866
691.712	5995.7585
691.908	6321.81327
692.104	6051.87286
692.301	6259.5545
692.497	6147.43559
692.693	5983.28631
692.889	6145.35866
693.086	6105.89269
693.282	6080.96244
693.478	6105.89269
693.674	5887.638
693.87	6149.51248
694.067	5968.73436
694.263	6238.7969
694.459	5908.43536
694.655	5958.33939
694.851	5802.34417
695.047	6037.32634
695.243	6051.87286
695.439	5956.26033
695.635	6014.4652
695.831	6174.43343
696.027	6008.22984
696.224	6095.5055
696.42	6151.58936
696.615	6413.08811
696.811	6008.22984
697.007	6012.38677
697.203	6083.04009
697.399	6074.72934
697.595	6022.77867
697.791	6078.88476
697.987	6066.41822
698.183	6174.43343
698.379	5991.6012
698.575	6066.41822
698.77	5947.94384
698.966	6078.88476
699.162	5947.94384
699.358	6143.28172
699.554	6020.70034
699.749	6280.30977
699.945	5999.91571
700.141	6107.97006
700.337	5875.15846
700.532	6155.74304
700.728	5554.55937
700.924	5931.30973
701.119	5698.27361
701.315	5835.63429
701.511	5881.39834
701.706	5993.67986
701.902	5895.95723
702.097	5987.44381
702.293	6074.72934
702.489	6184.81616
702.684	6134.9737
702.88	6267.85689
703.075	5954.18124
703.271	6112.12472
703.466	5931.30973
703.662	6172.35681
703.857	6001.99428
704.053	6263.70574
704.248	5794.0207
704.443	6170.28017
704.639	6074.72934
704.834	6151.58936
705.03	5760.72303
705.225	6213.88468
705.42	5962.49745
705.616	6174.43343
705.811	6026.93527
706.006	6159.89662
706.202	5852.27708
706.397	6062.26252
706.592	6010.30832
706.787	6164.05011
706.983	5835.63429
707.178	6006.15135
707.373	5877.23844
707.568	6076.80707
707.763	6022.77867
707.959	6203.50359
708.154	6151.58936
708.349	6215.96083
708.544	6176.51002
708.739	6085.11771
708.934	5964.57644
709.129	6022.77867
709.324	5791.93977
709.519	6041.48261
709.714	5823.1512
709.909	6164.05011
710.104	5877.23844
710.299	6143.28172
710.494	5939.62697
710.689	6107.97006
710.884	5783.61583
711.079	6018.62198
711.274	5681.61685
711.469	5787.77785
711.664	5771.1292
711.859	6089.2729
712.054	5906.35573
712.249	6139.12776
712.443	5667.04094
712.638	5856.43754
712.833	5589.97765
713.028	5895.95723
713.223	5979.12873
713.417	6201.42731
713.612	6010.30832
713.807	6010.30832
714.002	6043.56071
714.196	5927.15096
714.391	5900.1167
714.586	6147.43559
714.78	5864.75819
714.975	6124.58816
715.17	5958.33939
715.364	6049.79486
715.559	5733.66422
715.754	5685.78118
715.948	5639.96833
716.143	5999.91571
716.337	5760.72303
716.532	6080.96244
716.726	5823.1512
716.921	5893.87746
717.115	5677.45242
717.31	5764.88557
717.504	5608.72575
717.699	5723.25593
717.893	5692.0275
718.088	5950.023
718.282	5773.21036
718.476	5873.07845
718.671	5721.1742
718.865	5837.71472
719.059	5850.19682
719.254	5966.65541
719.448	5679.53465
719.642	6116.27929
719.837	5785.69685
720.031	6085.11771
720.225	5406.56241
720.419	5762.80431
720.614	5558.72658
720.808	5839.79513
721.002	5606.64272
721.196	5931.30973
721.39	5739.90892
721.585	5629.55473
721.779	5579.56122
721.973	5681.61685
722.167	5564.97722
722.361	5879.3184
722.555	5979.12873
722.749	5900.1167
722.943	5673.2879
723.137	5758.64172
723.331	5731.58261
723.525	5810.66727
723.719	5642.05098
723.913	5779.45371
724.107	5652.46388
724.301	5614.97469
724.495	5581.64455
724.689	5689.94542
724.883	5556.64299
725.077	5783.61583
725.271	5614.97469
725.465	5571.22765
725.659	5729.50098
725.853	5729.50098
726.046	5702.43757
726.24	5756.5604
726.434	5535.80576
726.628	5623.30628
726.822	5421.15893
727.015	5671.2056
727.209	5335.64868
727.403	5710.7652
727.596	5587.89441
727.79	5798.18248
727.984	5564.97722
728.177	5594.14406
728.371	5600.3935
728.565	5627.47193
728.758	5548.30838
728.952	5679.53465
729.146	5569.1442
729.339	5883.47825
729.533	5721.1742
729.726	5756.5604
729.92	5650.38134
730.113	5750.31627
730.307	5731.58261
730.5	5621.22342
730.694	5623.30628
730.887	5706.60143
731.081	5567.06072
731.274	5669.12328
731.468	5667.04094
731.661	5877.23844
731.854	5692.0275
732.048	5806.50577
732.241	5556.64299
732.435	5631.63749
732.628	5675.37017
732.821	5529.55413
733.014	5477.449
733.208	5633.72024
733.401	5575.39448
733.594	5544.14094
733.788	5714.92887
733.981	5689.94542
734.174	5702.43757
734.367	5760.72303
734.56	5667.04094
734.754	5800.26334
734.947	5787.77785
735.14	5719.09245
735.333	5667.04094
735.526	5816.90934
735.719	5644.13361
735.912	5835.63429
736.105	5723.25593
736.298	5906.35573
736.491	5756.5604
736.684	5675.37017
736.877	5533.72191
737.07	5756.5604
737.263	5681.61685
737.456	5629.55473
737.649	5594.14406
737.842	5773.21036
738.035	5702.43757
738.228	5692.0275
738.421	5702.43757
738.614	5627.47193
738.807	5467.0262
739	5487.8712
739.192	5416.98861
739.385	5575.39448
739.578	5460.77225
739.771	5560.81015
739.964	5517.05024
740.156	5519.13428
740.349	5264.70785
740.542	5456.60282
740.735	5398.22103
740.927	5644.13361
741.12	5312.70019
741.313	5339.82082
741.505	5406.56241
741.698	5502.4613
741.891	5812.74798
742.083	5714.92887
742.276	5733.66422
742.468	5856.43754
742.661	5581.64455
742.854	5660.79377
743.046	5508.71385
743.239	5650.38134
743.431	5806.50577
743.624	5712.84704
743.816	5402.39177
744.009	5569.1442
744.201	5531.63803
744.393	5487.8712
744.586	5300.18165
744.778	5489.95557
744.971	5277.22878
745.163	5562.8937
745.355	5498.29282
745.548	5608.72575
745.74	5327.3041
745.932	5325.2179
746.125	5450.34851
746.317	5531.63803
746.509	5402.39177
746.702	5706.60143
746.894	5481.61795
747.086	5564.97722
747.278	5479.53348
747.471	5550.39207
747.663	5527.47021
747.855	5581.64455
748.047	5756.5604
748.239	5631.63749
748.431	5481.61795
748.623	5689.94542
748.815	5356.50847
749.008	5264.70785
749.2	5337.73476
749.392	5683.69903
749.584	5433.66932
749.776	5931.30973
749.968	5556.64299
750.16	5689.94542
750.352	5446.17885
750.544	5506.62969
750.736	5594.14406
750.928	5712.84704
751.12	5346.07887
751.311	5366.93749
751.503	5462.85692
751.695	5327.3041
751.887	5139.45228
752.079	5612.89173
752.271	5323.13167
752.463	5419.07378
752.654	5416.98861
752.846	5583.72786
753.038	5308.52744
753.23	5477.449
753.421	5160.33403
753.613	5425.32915
753.805	5287.66225
753.997	5331.47644
754.188	5231.31457
754.38	5381.53713
754.572	5068.43694
754.763	5350.25078
754.955	5133.1873
755.146	5469.11081
755.338	5222.96532
755.53	5237.57627
755.721	5306.44103
755.913	5245.92487
756.104	5218.79056
756.296	5270.96842
756.487	5325.2179
756.679	5318.95915
756.87	5143.62882
757.062	5283.48894
757.253	5241.75062
757.445	5283.48894
757.636	5356.50847
757.827	5158.24596
758.019	5239.66345
758.21	5325.2179
758.401	5143.62882
758.593	5312.70019
758.784	5492.03992
758.975	5383.6227
759.167	5396.13562
759.358	5385.70825
759.549	5055.90204
759.74	5462.85692
759.932	5024.56114
760.123	4993.21505
760.314	5064.25873
760.505	5053.81281
760.696	4951.41219
760.888	4855.23075
761.079	4867.7789
761.27	5089.32659
761.461	4915.87253
761.652	5080.97101
761.843	4802.93794
762.034	5039.18754
762.225	4986.94521
762.416	5387.79377
762.607	4949.32181
762.798	5168.68608
762.989	5064.25873
763.18	5106.03664
763.371	4746.44575
763.562	4984.85521
763.753	4645.9745
763.944	4911.69095
764.135	4706.68209
764.326	4961.86377
764.517	4974.4049
764.708	5020.38196
764.899	4986.94521
765.089	4993.21505
765.28	4980.67516
765.471	5083.05994
765.662	4903.32753
765.853	5066.34785
766.043	4830.13198
766.234	4903.32753
766.425	4798.7539
766.615	4903.32753
766.806	4721.33281
766.997	4876.14388
767.187	4671.09717
767.378	4863.59628
767.569	4658.53624
767.759	4763.1859
767.95	4853.13931
768.141	4855.23075
768.331	4562.20898
768.522	4815.48952
768.712	4880.32623
768.903	4974.4049
769.093	4685.75057
769.284	4966.04424
769.474	4773.64776
769.665	4729.70415
769.855	4503.55193
770.046	4763.1859
770.236	4558.01976
770.426	4593.62523
770.617	4499.36148
770.807	4809.21383
770.998	4555.92512
771.188	4673.19058
771.378	4551.73578
771.569	4710.86812
771.759	4775.74006
771.949	4514.02768
772.139	4537.07237
772.33	4591.53097
772.52	4578.96494
772.71	4637.59955
772.9	4549.64107
773.09	4662.72331
773.281	4514.02768
773.471	4809.21383
773.661	4589.43669
773.851	4438.59002
774.041	4268.75191
774.231	4270.84954
774.421	4121.86497
774.611	4283.43487
774.802	4268.75191
774.992	4333.76846
775.182	4396.66793
775.372	4537.07237
775.562	4480.50335
775.752	4444.87758
775.942	4256.16568
776.131	4446.97339
776.321	4258.26344
776.511	4361.02729
776.701	4400.86053
776.891	4528.69279
777.081	4480.50335
777.271	4325.38039
777.461	4214.20603
777.651	4151.25064
777.84	4096.67399
778.03	4220.50052
778.22	4046.28304
778.41	4434.39821
778.599	4193.22301
778.789	4249.87228
778.979	4153.34946
779.169	4210.00959
779.358	4172.23788
779.548	4256.16568
779.738	4042.08325
779.927	4212.10782
780.117	4142.85515
780.307	4058.88189
780.496	3907.64693
780.686	4256.16568
780.875	4130.26129
781.065	4151.25064
781.254	4235.18692
781.444	4201.61647
781.633	4025.28329
781.823	4153.34946
782.012	4042.08325
782.202	4117.66668
782.391	4037.88339
782.581	4031.58343
782.77	3993.77982
782.96	4092.4752
783.149	3741.58876
783.338	4008.48201
783.528	3821.48023
783.717	3859.31364
783.906	3974.87552
784.096	4210.00959
784.285	3901.34318
784.474	4054.68236
784.663	3907.64693
784.853	4004.28149
785.042	3861.4153
785.231	4096.67399
785.42	3892.93792
785.61	4054.68236
785.799	3890.83655
785.988	4002.1812
786.177	3916.05163
786.366	3895.03926
786.555	3920.25386
786.744	4006.38176
786.933	3846.70321
787.122	4136.55832
787.312	3939.16291
787.501	3941.26382
787.69	3924.45602
787.879	4289.72725
788.068	3932.86008
788.257	3865.61858
788.445	3592.24325
788.634	3924.45602
788.823	3741.58876
789.012	3819.37819
789.201	3701.6325
789.39	3653.25512
789.579	3606.9717
789.768	3842.49958
789.957	3752.10241
790.145	3716.35404
790.334	3747.89701
790.523	3840.39774
790.712	3524.9016
790.9	3598.55556
791.089	3396.47988
791.278	3756.30773
791.467	3712.14798
791.655	3674.29
791.844	3531.21568
792.033	3588.03496
792.221	3274.31307
792.41	3463.857
792.599	3356.46614
792.787	3754.20508
792.976	3731.07463
793.164	3806.76551
793.353	3623.80309
793.541	3588.03496
793.73	3743.69153
793.918	3693.21977
794.107	3385.95056
794.295	3705.83875
794.484	3596.45148
794.672	3571.20103
794.861	3345.93516
795.049	3411.22018
795.238	3356.46614
795.426	3638.52957
795.614	3373.3148
795.803	3459.64647
795.991	3579.61814
796.179	3449.11982
796.368	3543.84335
796.556	3388.05646
796.744	3093.06509
796.932	3280.63346
797.121	3141.55019
797.309	3520.69212
797.497	3505.95836
797.685	3552.26143
797.874	3514.37776
798.062	3444.90903
798.25	3280.63346
798.438	3455.43586
798.626	3246.92295
798.814	3411.22018
799.002	3208.9935
799.19	3520.69212
799.378	3246.92295
799.566	3310.12659
799.755	3109.93043
799.943	3373.3148
800.131	3339.61636
800.318	3552.26143
800.506	3242.70883
800.694	3337.51006
800.882	3244.8159
801.07	3463.857
801.258	3352.2538
801.446	3514.37776
801.634	3112.03852
801.822	3272.20624
802.01	3322.76548
802.197	3436.48725
802.385	3257.45795
802.573	3388.05646
802.761	3261.67183
802.949	3383.84464
803.136	3166.84339
803.324	3451.22518
803.512	3200.564
803.699	3187.91926
803.887	3305.91349
804.075	3274.31307
804.262	3048.78878
804.45	3362.78452
804.638	3274.31307
804.825	3541.73879
805.013	3343.82891
805.201	3362.78452
805.388	3364.89061
805.576	3505.95836
805.763	3373.3148
805.951	3495.4337
806.138	3377.52679
806.326	3596.45148
806.513	3141.55019
806.701	3166.84339
806.888	3343.82891
807.075	3497.53867
807.263	3314.33962
807.45	3451.22518
807.638	3187.91926
807.825	3588.03496
808.012	3265.88564
808.2	3183.70422
808.387	3185.81175
808.574	3434.38176
808.761	3415.43154
808.949	3596.45148
809.136	3324.8719
809.323	3575.40962
809.51	3175.27393
809.698	3289.06041
809.885	3143.65804
810.072	3320.65904
810.259	3284.84697
810.446	3371.20878
810.633	3293.27378
810.82	3415.43154
811.008	3326.9783
811.195	3693.21977
811.382	3495.4337
811.569	3457.54117
811.756	3329.08469
811.943	3573.30533
812.13	3322.76548
812.317	3478.5933
812.504	3396.47988
812.691	3606.9717
812.878	3396.47988
813.064	3539.6342
813.251	3379.63276
813.438	3474.38302
813.625	3366.99668
813.812	3436.48725
813.999	3419.64282
814.186	3712.14798
814.372	3484.90859
814.559	3539.6342
814.746	3286.9537
814.933	3512.27294
815.12	3394.37405
815.306	3444.90903
815.493	3274.31307
815.68	3566.99236
815.866	3320.65904
816.053	3407.00875
816.24	3341.72264
816.426	3533.32034
816.613	3379.63276
816.799	3432.27625
816.986	3345.93516
817.173	3423.85403
817.359	3194.24171
817.546	3478.5933
817.732	3208.9935
817.919	3604.86769
818.105	3377.52679
818.292	3385.95056
818.478	3099.38971
818.665	3442.80361
818.851	3329.08469
819.037	3514.37776
819.224	3411.22018
819.41	3388.05646
819.597	3217.42273
819.783	3293.27378
819.969	3308.02005
820.156	3581.72237
820.342	3301.70032
820.528	3529.11101
820.714	3326.9783
820.901	3430.17072
821.087	3168.95105
821.273	3200.564
821.459	3116.25467
821.646	3249.02998
821.832	3301.70032
822.018	3400.69148
822.204	3276.41988
822.39	3596.45148
822.576	3487.01365
822.762	3453.33053
822.948	3126.79475
823.134	3400.69148
823.32	3240.60175
823.507	3491.22371
823.693	3219.53
823.879	3238.49465
824.065	3059.33139
824.25	3242.70883
824.436	3034.02849
824.622	3449.11982
824.808	3192.13424
824.994	3449.11982
825.18	3238.49465
825.366	3316.44611
825.552	2981.30703
825.738	3253.244
825.923	3006.61452
826.109	3263.77874
826.295	3053.00587
826.481	3392.2682
826.667	3120.47075
826.852	3343.82891
827.038	3270.09939
827.224	3284.84697
827.409	3048.78878
827.595	3156.30484
827.781	2964.43416
827.966	3171.05869
828.152	3084.63204
828.338	3156.30484
828.523	2808.31589
828.709	3069.8736
828.894	3031.91982
829.08	3208.9935
829.266	2920.13837
829.451	3232.17325
829.637	2991.85208
829.822	3027.70242
830.008	2865.28705
830.193	3015.04986
830.378	2947.56034
830.564	3061.43986
830.749	3021.37621
830.935	2972.87072
831.12	2804.0954
831.305	2964.43416
831.491	2696.45469
831.676	2833.63766
831.861	2865.28705
832.047	2890.60425
832.232	3078.30709
832.417	3059.33139
832.602	2875.83613
832.788	2852.62767
832.973	2873.72634
833.158	2934.90436
833.343	2768.21903
833.528	3044.57163
833.714	2856.84752
833.899	2907.48124
834.084	2656.34454
834.269	2877.94591
834.454	2660.56688
834.639	2666.90029
834.824	2789.32326
835.009	2846.2978
835.194	2734.44948
835.379	2909.5908
835.564	2546.54648
835.749	2789.32326
835.934	2787.2129
836.119	2766.10854
836.304	2569.77571
836.489	2768.21903
836.674	2601.44962
836.859	2789.32326
837.044	2542.32283
837.228	2918.02888
837.413	2669.0114
837.598	2770.32952
837.783	2451.50334
837.968	2669.0114
838.152	2550.77008
838.337	2493.74755
838.522	2635.2321
838.707	2677.45572
838.891	2415.59233
839.076	2812.53633
839.261	2428.26715
839.445	2679.56677
839.63	2603.56111
839.815	2681.6778
839.999	2474.7382
840.184	2487.4112
840.368	2257.12633
840.553	2614.11842
840.737	2440.9416
840.922	2561.32889
841.106	2307.84141
841.291	2377.56559
841.475	2309.95442
841.66	2421.92979
841.844	2219.08659
842.029	2398.69197
842.213	2362.77652
842.397	2309.95442
842.582	2183.15757
842.766	2407.14224
842.951	2227.54011
843.135	2409.25477
843.319	2111.29239
843.504	2525.42777
843.688	2269.8056
843.872	2459.95253
844.056	2457.84025
844.241	2457.84025
844.425	2276.14511
844.609	2457.84025
844.793	2295.16314
844.977	2502.19586
845.161	2162.02171
845.346	2367.00202
845.53	2373.34019
845.714	2432.49201
845.898	2278.25827
846.082	2407.14224
846.266	2449.39101
846.45	2413.47982
846.634	2502.19586
846.818	2516.97996
847.002	2138.77134
847.186	2280.37141
847.37	2113.4062
847.554	2278.25827
847.738	1785.6879
847.922	2183.15757
848.106	2049.98862
848.29	2121.86137
848.473	2121.86137
848.657	2102.83707
848.841	2030.96209
849.025	2392.35417
849.209	2022.50568
849.392	2168.36256
849.576	2115.52001
849.76	2212.74635
849.944	1999.25
850.127	2052.10265
850.311	1948.50765
850.495	2039.4184
850.678	1868.15877
850.862	2153.56714
851.046	1802.60556
851.229	1961.19357
851.413	2043.64651
851.596	1986.56475
851.78	1937.93589
851.964	2094.38162
852.147	1866.04422
852.331	1973.87927
852.514	1978.10779
852.698	2052.10265
852.881	1847.01306
853.065	2001.36418
853.248	1870.27331
853.431	2018.27744
853.615	1935.82152
853.798	1984.45052
853.982	1887.18947
854.165	1868.15877
854.348	1772.99949
854.532	2136.65762
854.715	1745.50744
854.898	1940.05026
855.081	1783.57317
855.265	2018.27744
855.448	1770.88474
855.631	1878.73143
855.814	1732.8186
855.997	1978.10779
856.181	1711.67025
856.364	2039.4184
856.547	1866.04422
856.73	1751.85182
856.913	1711.67025
857.096	1971.765
857.279	1677.83222
857.462	1893.53295
857.645	1557.27913
857.828	1646.10842
858.011	1654.56816
858.194	1605.92416
858.377	1595.34923
858.56	1698.98108
858.743	1519.2086
858.926	1671.48751
859.109	1586.88925
859.292	1557.27913
859.475	1510.74844
859.658	1612.26909
859.841	1455.75717
860.023	1840.66926
860.206	1506.51835
860.389	1777.22897
860.572	1561.50917
860.755	1567.85421
860.937	1481.13779
861.12	1734.93341
861.303	1536.12888
861.486	1654.56816
861.668	1493.82808
861.851	1688.40669
862.034	1385.96058
862.216	1443.06686
862.399	1256.94593
862.581	1495.94313
862.764	1462.10233
862.947	1506.51835
863.129	1417.68625
863.312	1569.96922
863.494	1462.10233
863.677	1620.72898
863.859	1476.90769
864.042	1523.43867
864.224	1295.01511
864.406	1563.62418
864.589	1457.87222
864.771	1394.42075
864.954	1278.09538
865.136	1350.00508
865.318	1189.26961
865.501	1282.3253
865.683	1282.3253
865.865	1468.44748
866.048	1206.18839
866.23	1392.3057
866.412	1176.58068
866.594	1324.62495
866.777	1379.61547
866.959	1366.92527
867.141	1223.10737
867.323	1366.92527
867.505	1146.97372
867.687	1290.78516
867.869	1328.85495
868.052	1392.3057
868.234	1282.3253
868.416	1428.2615
868.598	1462.10233
868.78	1385.96058
868.962	1354.23512
869.144	1411.3411
869.326	1250.60115
869.508	1301.36004
869.69	1311.93497
869.872	1328.85495
870.054	1163.89189
870.236	1206.18839
870.417	1267.52062
870.599	1379.61547
870.781	1149.08848
870.963	1265.40568
871.145	933.41021
871.327	1282.3253
871.508	1068.73092
871.69	1185.03996
871.872	1062.38721
872.054	1098.33553
872.235	1070.8455
872.417	1267.52062
872.599	1045.47089
872.78	1070.8455
872.962	1299.24506
873.144	1237.91165
873.325	1146.97372
873.507	1225.22226
873.689	1178.6955
873.87	1201.95867
874.052	1053.929
874.233	1204.07353
874.415	1121.59697
874.596	1339.42999
874.778	1037.01286
874.959	1111.02352
875.141	1062.38721
875.322	1089.87697
875.503	1077.18928
875.685	1083.5331
875.866	1079.30388
876.048	1191.38445
876.229	1134.28527
876.41	1227.33715
876.592	986.26673
876.773	1290.78516
876.954	1113.1382
877.136	1218.87761
877.317	1079.30388
877.498	1197.72897
877.679	1060.27265
877.86	1235.79675
878.042	1013.75377
878.223	1214.64785
878.404	1003.18171
878.585	1138.51473
878.766	1072.96009
878.947	1185.03996
879.128	1125.82639
879.309	1182.92513
879.49	1113.1382
879.672	1261.1758
879.853	1134.28527
880.034	1299.24506
880.215	1113.1382
880.396	1275.98042
880.576	1146.97372
880.757	1223.10737
880.938	1119.48227
881.119	1182.92513
881.3	1138.51473
881.481	1240.02656
881.662	1144.85897
881.843	1199.84382
882.023	1066.61634
882.204	1157.54755
882.385	1062.38721
882.566	1240.02656
882.747	1214.64785
882.927	1248.48622
883.108	1064.50177
883.289	1197.72897
883.469	1115.25289
883.65	1182.92513
883.831	1140.62947
884.011	1286.55522
884.192	1003.18171
884.373	1214.64785
884.553	1125.82639
884.734	1240.02656
884.914	1252.71607
885.095	1269.63557
885.275	1117.36758
885.456	1290.78516
885.636	1157.54755
885.817	1231.56694
885.997	1134.28527
886.178	1223.10737
886.358	1176.58068
886.538	1189.26961
886.719	1250.60115
886.899	1299.24506
887.08	1100.45018
887.26	1371.15534
887.44	1089.87697
887.621	1187.15478
887.801	937.63857
887.981	1206.18839
888.161	1309.81998
888.342	1333.08496
888.522	1227.33715
888.702	1252.71607
888.882	1252.71607
889.062	1210.41811
889.242	1094.10624
889.423	1132.17054
889.603	1079.30388
889.783	1235.79675
889.963	1163.89189
890.143	1176.58068
890.323	1056.04355
890.503	1350.00508
890.683	1096.22088
890.863	1328.85495
891.043	1146.97372
891.223	1292.90013
891.403	1091.9916
891.583	1318.27995
891.763	1100.45018
891.943	1434.60665
892.122	1138.51473
892.302	1265.40568
892.482	1216.76273
892.662	1290.78516
892.842	1066.61634
893.022	1047.58541
893.201	969.35217
893.381	1140.62947
893.561	1155.43277
893.741	1172.35107
893.92	998.95292
894.1	1311.93497
894.28	1085.64772
894.459	1290.78516
894.639	1149.08848
894.819	1149.08848
894.998	1005.29611
895.178	1102.56484
895.357	889.01429
895.537	1049.69993
895.716	1037.01286
895.896	1127.9411
896.075	901.69849
896.255	1089.87697
896.434	988.38108
896.614	1197.72897
896.793	1017.98265
896.973	1083.5331
897.152	1083.5331
897.331	1119.48227
897.511	918.61119
897.69	1151.20324
897.87	920.72532
898.049	1024.326
898.228	1011.63935
898.407	1051.81447
898.587	956.66654
898.766	1182.92513
898.945	901.69849
899.124	1045.47089
899.304	1001.06731
899.483	1083.5331
899.662	840.39428
899.841	1072.96009
900.02	914.38297
900.199	918.61119
900.378	850.96346
900.557	990.49543
900.737	956.66654
900.916	1075.07468
901.095	848.84961
901.274	922.83945
901.453	800.23344
901.632	897.47039
901.811	844.62192
901.989	927.06773
902.168	768.52992
902.347	861.53286
902.526	732.602
902.705	891.1283
902.884	804.46074
903.063	859.41896
903.242	675.54638
903.42	722.03554
903.599	671.32036
903.778	768.52992
903.957	681.88549
904.135	766.41643
904.314	631.17557
904.493	709.35615
904.672	622.72459
904.85	607.93586
905.029	626.95005
905.207	694.56402
905.386	626.95005
905.565	700.90343
905.743	578.36028
905.922	574.1354
906.1	546.67503
906.279	696.67715
906.457	618.49918
906.636	559.34876
906.814	546.67503
906.993	626.95005
907.171	506.54484
907.35	493.87323
907.528	495.98513
907.707	576.24783
907.885	407.29842
908.063	438.9691
908.242	346.07892
908.42	479.09034
908.598	504.43287
908.777	536.11396
908.955	470.64331
909.133	512.88085
909.311	379.85345
909.49	464.30819
909.668	470.64331
909.846	529.77749
910.024	453.74996
910.202	529.77749
910.38	430.52323
910.559	525.55324
910.737	470.64331
910.915	451.63837
911.093	436.85761
911.271	597.37286
911.449	523.44114
911.627	396.74233
911.805	419.96626
911.983	495.98513
912.161	417.85491
912.339	489.64947
912.517	481.20214
912.695	563.57345
912.872	411.52097
913.05	540.33835
913.228	428.41181
913.406	419.96626
913.584	610.0485
913.762	502.32091
913.939	464.30819
914.117	527.66536
914.295	508.65683
914.473	487.53762
914.65	470.64331
914.828	595.2603
915.006	403.07593
915.184	464.30819
915.361	390.40887
915.539	453.74996
915.716	546.67503
915.894	506.54484
916.072	422.07762
916.249	441.0806
916.427	419.96626
916.604	432.63468
916.782	392.52001
916.959	453.74996
917.137	453.74996
917.314	436.85761
917.492	337.63597
917.669	453.74996
917.847	525.55324
918.024	479.09034
918.201	388.29776
918.379	430.52323
918.556	386.18665
918.733	474.86679
918.911	335.52528
919.088	403.07593
919.265	310.19835
919.442	405.18717
919.62	339.74668
919.797	403.07593
919.974	318.64038
920.151	331.30395
920.328	346.07892
920.506	485.42577
920.683	377.74241
920.86	472.75504
921.037	337.63597
921.214	419.96626
921.391	322.8615
921.568	413.63227
921.745	312.30883
921.922	343.96815
922.099	318.64038
922.276	379.85345
922.453	341.85741
922.63	327.08269
922.807	346.07892
922.984	430.52323
923.161	320.75093
923.338	295.42551
923.514	373.52039
923.691	352.41131
923.868	217.35571
924.045	257.44235
924.222	318.64038
924.399	314.41933
924.575	301.75662
924.752	284.87402
924.929	238.45306
925.105	242.67277
925.282	244.78265
925.459	329.19331
925.635	244.78265
925.812	257.44235
925.989	206.80777
926.165	232.12365
926.342	192.04149
926.518	295.42551
926.695	240.56291
926.871	339.74668
927.048	255.33235
927.224	217.35571
927.401	173.05775
927.577	200.47924
927.754	217.35571
927.93	211.02688
928.107	230.01389
928.283	217.35571
928.459	225.79441
928.636	335.52528
928.812	232.12365
928.988	253.22237
929.165	225.79441
929.341	208.91732
929.517	202.58873
929.693	158.29377
929.87	194.1509
930.046	145.63975
930.222	160.40285
930.398	227.90414
930.574	158.29377
930.751	276.43317
930.927	141.42191
931.103	227.90414
931.279	141.42191
931.455	156.18471
931.631	141.42191
931.807	234.23344
931.983	234.23344
932.159	151.96666
932.335	230.01389
932.511	221.57502
932.687	162.51195
932.863	126.66015
933.039	154.07568
933.215	143.53082
933.391	162.51195
933.566	154.07568
933.742	101.35674
933.918	183.60407
934.094	132.98649
934.27	156.18471
934.445	166.73021
934.621	107.68229
934.797	114.00805
934.973	213.13647
935.148	111.89944
935.324	57.08346
935.5	29.68125
935.675	116.11668
935.851	65.5157
936.027	59.19149
936.202	14.92785
936.378	120.334
936.553	120.334
936.729	82.38126
936.904	44.4358
937.08	50.75953
937.255	78.16474
937.431	105.57375
937.606	90.81458
937.782	-1.93175
937.957	48.65159
938.133	97.13981
938.308	92.92297
938.483	6.49786
938.659	14.92785
938.834	109.79086
939.009	57.08346
939.185	48.65159
939.36	132.98649
939.535	27.57355
939.71	-14.57544
939.886	65.5157
940.061	78.16474
940.236	31.78897
940.411	31.78897
940.586	-10.36097
940.761	-6.14641
940.937	73.9483
941.112	31.78897
941.287	17.0354
941.462	69.73195
941.637	107.68229
941.812	52.86748
941.987	38.11228
942.162	65.5157
942.337	36.00449
942.512	29.68125
942.687	19.14299
942.862	-48.28761
943.037	14.92785
943.212	54.97546
943.386	73.9483
943.561	-16.68263
943.736	57.08346
943.911	76.05651
944.086	-48.28761
944.26	10.7128
944.435	67.62381
944.61	44.4358
944.785	69.73195
944.959	69.73195
945.134	-44.07393
945.309	44.4358
945.483	52.86748
945.658	50.75953
945.833	27.57355
946.007	40.22009
946.182	82.38126
946.357	78.16474
946.531	14.92785
946.706	-63.03467
946.88	-29.32529
947.055	23.35822
947.229	132.98649
947.404	40.22009
947.578	12.82031
947.752	59.19149
947.927	65.5157
948.101	31.78897
948.276	10.7128
948.45	-6.14641
948.624	65.5157
948.799	17.0354
948.973	48.65159
949.147	40.22009
949.321	-58.82135
949.496	50.75953
949.67	-14.57544
949.844	65.5157
950.018	73.9483
950.193	19.14299
950.367	25.46587
950.541	50.75953
950.715	78.16474
950.889	2.283
951.063	82.38126
951.237	8.60532
951.411	-10.36097
951.585	65.5157
951.759	6.49786
951.933	27.57355
952.107	-14.57544
952.281	158.29377
952.455	86.59788
952.629	84.48956
952.803	-18.7898
952.977	19.14299
953.151	12.82031
953.325	23.35822
953.499	10.7128
953.672	90.81458
953.846	12.82031
954.02	25.46587
954.194	-16.68263
954.368	80.27299
954.541	109.79086
954.715	78.16474
954.889	44.4358
955.062	0.17561
955.236	80.27299
955.41	25.46587
955.583	42.32793
955.757	14.92785
955.93	90.81458
956.104	73.9483
956.278	50.75953
956.451	31.78897
956.625	48.65159
956.798	101.35674
956.972	105.57375
957.145	-31.43231
957.319	-4.03909
957.492	-33.53931
957.665	8.60532
957.839	76.05651
958.012	61.29953
958.185	99.24826
958.359	48.65159
958.532	6.49786
958.705	12.82031
958.879	17.0354
959.052	69.73195
959.225	21.25059
959.398	10.7128
959.572	38.11228
959.745	-58.82135
959.918	31.78897
960.091	101.35674
960.264	71.84011
960.438	27.57355
960.611	48.65159
960.784	31.78897
960.957	-10.36097
961.13	6.49786
961.303	105.57375
961.476	40.22009
961.649	88.70622
961.822	-8.2537
961.995	42.32793
962.168	14.92785
962.341	-27.21824
962.514	25.46587
962.686	-25.11117
962.859	27.57355
963.032	33.89672
963.205	92.92297
963.378	78.16474
963.551	48.65159
963.723	8.60532
963.896	78.16474
964.069	-27.21824
964.242	25.46587
964.414	95.03138
964.587	8.60532
964.76	84.48956
964.932	84.48956
965.105	2.283
965.278	23.35822
965.45	73.9483
965.623	67.62381
965.795	73.9483
965.968	19.14299
966.14	31.78897
966.313	103.46523
966.485	-1.93175
966.658	23.35822
966.83	36.00449
967.003	2.283
967.175	19.14299
967.348	17.0354
967.52	23.35822
967.692	23.35822
967.865	109.79086
968.037	-33.53931
968.209	50.75953
968.382	14.92785
968.554	-8.2537
968.726	88.70622
968.898	33.89672
969.071	-6.14641
969.243	23.35822
969.415	-6.14641
969.587	14.92785
969.759	-12.46822
969.932	31.78897
970.104	86.59788
970.276	78.16474
970.448	44.4358
970.62	-27.21824
970.792	40.22009
970.964	27.57355
971.136	12.82031
971.308	-25.11117
971.48	-10.36097
971.652	61.29953
971.824	33.89672
971.996	82.38126
972.168	-33.53931
972.339	50.75953
972.511	23.35822
972.683	23.35822
972.855	14.92785
973.027	-1.93175
973.199	23.35822
973.37	-37.75323
973.542	17.0354
973.714	23.35822
973.886	90.81458
974.057	-14.57544
974.229	6.49786
974.401	73.9483
974.572	-25.11117
974.744	31.78897
974.915	40.22009
975.087	88.70622
975.259	69.73195
975.43	25.46587
975.602	8.60532
975.773	101.35674
975.945	78.16474
976.116	-37.75323
976.288	42.32793
976.459	29.68125
976.63	52.86748
976.802	2.283
976.973	36.00449
977.145	10.7128
977.316	67.62381
977.487	92.92297
977.659	44.4358
977.83	44.4358
978.001	82.38126
978.172	25.46587
978.344	-54.60793
978.515	54.97546
978.686	-77.78048
978.857	86.59788
979.028	71.84011
979.2	31.78897
979.371	-27.21824
979.542	2.283
979.713	54.97546
979.884	57.08346
980.055	48.65159
980.226	40.22009
980.397	17.0354
980.568	17.0354
980.739	23.35822
980.91	25.46587
981.081	-27.21824
981.252	57.08346
981.423	-12.46822
981.594	50.75953
981.765	-8.2537
981.936	31.78897
982.106	6.49786
982.277	-8.2537
982.448	-14.57544
982.619	44.4358
982.79	84.48956
982.96	29.68125
983.131	27.57355
983.302	71.84011
983.472	-23.00407
983.643	84.48956
983.814	61.29953
983.984	6.49786
984.155	-18.7898
984.326	48.65159
984.496	40.22009
984.667	-18.7898
984.837	-39.86016
985.008	-23.00407
985.178	-60.92802
985.349	-16.68263
985.519	-4.03909
985.69	-35.64629
985.86	90.81458
986.031	14.92785
986.201	38.11228
986.371	29.68125
986.542	6.49786
986.712	23.35822
986.882	-54.60793
987.053	10.7128
987.223	-1.93175
987.393	-8.2537
987.563	65.5157
987.734	40.22009
987.904	-20.89695
988.074	10.7128
988.244	-33.53931
988.414	86.59788
988.585	-35.64629
988.755	25.46587
988.925	4.39042
989.095	86.59788
989.265	21.25059
989.435	38.11228
989.605	65.5157
989.775	17.0354
989.945	31.78897
990.115	6.49786
990.285	27.57355
990.455	12.82031
990.625	-77.78048
990.795	36.00449
990.965	31.78897
991.134	23.35822
991.304	0.17561
991.474	-8.2537
991.644	33.89672
991.814	61.29953
991.984	73.9483
992.153	107.68229
992.323	-52.50118
992.493	14.92785
992.662	71.84011
992.832	50.75953
993.002	23.35822
993.171	19.14299
993.341	31.78897
993.511	-6.14641
993.68	54.97546
993.85	-20.89695
994.019	-10.36097
994.189	-35.64629
994.358	-69.35446
994.528	23.35822
994.697	31.78897
994.867	33.89672
995.036	0.17561
995.206	-27.21824
995.375	-92.52504
995.544	65.5157
995.714	23.35822
995.883	63.4076
996.052	-1.93175
996.222	71.84011
996.391	44.4358
996.56	25.46587
996.73	6.49786
996.899	-10.36097
997.068	-31.43231
997.237	59.19149
997.406	92.92297
997.576	0.17561
997.745	2.283
997.914	-10.36097
998.083	33.89672
998.252	-31.43231
998.421	27.57355
998.59	82.38126
998.759	-1.93175
998.928	23.35822
999.097	6.49786
999.266	23.35822
999.435	4.39042
999.604	36.00449
999.773	-67.24789
999.942	6.49786
1000.111	-14.57544
1000.28	52.86748
1000.448	8.60532
1000.617	59.19149
1000.786	25.46587
1000.955	-18.7898
1001.124	17.0354
1001.292	65.5157
1001.461	44.4358
1001.63	0.17561
1001.798	2.283
1001.967	61.29953
1002.136	-52.50118
1002.304	31.78897
1002.473	38.11228
1002.642	36.00449
1002.81	-4.03909
1002.979	17.0354
1003.147	2.283
1003.316	71.84011
1003.484	8.60532
1003.653	6.49786
1003.821	82.38126
1003.99	42.32793
1004.158	-16.68263
1004.327	-35.64629
1004.495	-35.64629
1004.663	-73.56752
1004.832	8.60532
1005	36.00449
1005.168	21.25059
1005.337	-35.64629
1005.505	42.32793
1005.673	25.46587
1005.842	-16.68263
1006.01	17.0354
1006.178	36.00449
1006.346	44.4358
1006.514	8.60532
1006.683	-44.07393
1006.851	48.65159
1007.019	42.32793
1007.187	-1.93175
1007.355	-39.86016
1007.523	-1.93175
1007.691	44.4358
1007.859	-8.2537
1008.027	80.27299
1008.195	92.92297
1008.363	-20.89695
1008.531	8.60532
1008.699	-6.14641
1008.867	23.35822
1009.035	52.86748
1009.203	50.75953
1009.37	-16.68263
1009.538	-29.32529
1009.706	-44.07393
1009.874	8.60532
1010.042	48.65159
1010.209	23.35822
1010.377	6.49786
1010.545	44.4358
1010.713	-25.11117
1010.88	-31.43231
1011.048	-8.2537
1011.216	42.32793
1011.383	59.19149
1011.551	23.35822
1011.718	57.08346
1011.886	48.65159
1012.054	27.57355
1012.221	-10.36097
1012.389	6.49786
1012.556	67.62381
1012.724	31.78897
1012.891	10.7128
1013.058	97.13981
1013.226	21.25059
1013.393	23.35822
1013.561	59.19149
1013.728	145.63975
1013.895	-18.7898
1014.063	40.22009
1014.23	36.00449
1014.397	17.0354
1014.565	50.75953
1014.732	65.5157
1014.899	-14.57544
1015.066	14.92785
1015.233	38.11228
1015.401	6.49786
1015.568	23.35822
1015.735	-10.36097
1015.902	-39.86016
1016.069	-1.93175
1016.236	50.75953
1016.403	57.08346
1016.57	2.283
1016.737	-39.86016
1016.904	-27.21824
1017.071	19.14299
1017.238	-58.82135
1017.405	6.49786
1017.572	52.86748
1017.739	82.38126
1017.906	2.283
1018.073	-1.93175
1018.24	-1.93175
1018.407	-8.2537
1018.573	-35.64629
1018.74	21.25059
1018.907	-111.48045
1019.074	71.84011
1019.241	0.17561
1019.407	8.60532
1019.574	99.24826
1019.741	40.22009
1019.907	-4.03909
1020.074	6.49786
1020.241	12.82031
1020.407	-4.03909
1020.574	-33.53931
1020.74	17.0354
1020.907	2.283
1021.073	25.46587
1021.24	17.0354
1021.406	-10.36097
1021.573	-27.21824
1021.739	33.89672
1021.906	-58.82135
1022.072	-63.03467
1022.239	-23.00407
1022.405	-23.00407
1022.571	8.60532
1022.738	59.19149
1022.904	-25.11117
1023.07	17.0354
1023.237	23.35822
1023.403	-84.09974
1023.569	-73.56752
1023.735	19.14299
1023.902	-16.68263
1024.068	38.11228
1024.234	42.32793
1024.4	-25.11117
1024.566	54.97546
1024.732	8.60532
1024.898	-52.50118
1025.065	67.62381
1025.231	36.00449
1025.397	38.11228
1025.563	-6.14641
1025.729	-1.93175
1025.895	23.35822
1026.061	6.49786
1026.227	-39.86016
1026.392	-4.03909
1026.558	-1.93175
1026.724	-25.11117
1026.89	-48.28761
1027.056	-1.93175
1027.222	-71.461
1027.388	-44.07393
1027.553	36.00449
1027.719	128.76891
1027.885	25.46587
1028.051	8.60532
1028.216	19.14299
1028.382	-8.2537
1028.548	10.7128
1028.713	54.97546
1028.879	-1.93175
1029.045	52.86748
1029.21	21.25059
1029.376	-94.6313
1029.541	61.29953
1029.707	40.22009
1029.873	44.4358
1030.038	36.00449
1030.204	25.46587
1030.369	-27.21824
1030.534	-6.14641
1030.7	12.82031
1030.865	-1.93175
1031.031	-18.7898
1031.196	-4.03909
1031.361	-23.00407
1031.527	-31.43231
1031.692	-41.96706
1031.857	-18.7898
1032.023	-69.35446
1032.188	31.78897
1032.353	-10.36097
1032.518	-81.99334
1032.684	14.92785
1032.849	-1.93175
1033.014	-35.64629
1033.179	-10.36097
1033.344	42.32793
1033.509	12.82031
1033.674	19.14299
1033.839	31.78897
1034.004	59.19149
1034.17	14.92785
1034.335	57.08346
1034.5	14.92785
1034.664	-16.68263
1034.829	-10.36097
1034.994	38.11228
1035.159	27.57355
1035.324	25.46587
1035.489	4.39042
1035.654	38.11228
1035.819	8.60532
1035.984	-84.09974
1036.148	25.46587
1036.313	-8.2537
1036.478	23.35822
1036.643	52.86748
1036.807	-25.11117
1036.972	-50.3944
1037.137	-39.86016
1037.301	128.76891
1037.466	73.9483
1037.631	-18.7898
1037.795	40.22009
1037.96	31.78897
1038.124	6.49786
1038.289	-60.92802
1038.454	10.7128
1038.618	-54.60793
1038.783	57.08346
1038.947	-23.00407
1039.111	86.59788
1039.276	17.0354
1039.44	19.14299
1039.605	-60.92802
1039.769	-27.21824
1039.933	42.32793
1040.098	-16.68263
1040.262	-44.07393
1040.426	-10.36097
1040.591	14.92785
1040.755	-33.53931
1040.919	-35.64629
1041.083	42.32793
1041.248	33.89672
1041.412	2.283
1041.576	-18.7898
1041.74	23.35822
1041.904	-52.50118
1042.068	-23.00407
1042.232	-46.18078
1042.397	-10.36097
1042.561	65.5157
1042.725	14.92785
1042.889	40.22009
1043.053	-33.53931
1043.217	76.05651
1043.381	-39.86016
1043.544	82.38126
1043.708	31.78897
1043.872	82.38126
1044.036	-18.7898
1044.2	19.14299
1044.364	63.4076
1044.528	-29.32529
1044.691	38.11228
1044.855	8.60532
1045.019	-6.14641
1045.183	-10.36097
1045.346	14.92785
1045.51	23.35822
1045.674	-31.43231
1045.837	29.68125
1046.001	57.08346
1046.165	27.57355
1046.328	-10.36097
1046.492	50.75953
1046.655	14.92785
1046.819	-33.53931
1046.983	71.84011
1047.146	-14.57544
1047.31	50.75953
1047.473	52.86748
1047.636	2.283
1047.8	69.73195
1047.963	8.60532
1048.127	17.0354
1048.29	-65.14129
