Data from Scatter_Coeff_Baseline_USB4F045381__15__0015.txt Node

Date: Thu Feb 13 19:18:19 EST 2025
User: mmckonesweet
Spectrometer: USB4F04538
Trigger mode: 4
Integration Time (sec): 2.400000E-3
Scans to average: 1
Electric dark correction enabled: true
Nonlinearity correction enabled: true
Boxcar width: 0
XAxis mode: Wavelengths
Number of Pixels in Spectrum: 3648
>>>>>Begin Spectral Data<<<<<
345.52	-29.67646
345.736	-29.67646
345.952	-29.67646
346.168	-0.17561
346.384	29.32996
346.6	-48.63874
346.816	69.38059
347.032	6.14661
347.248	-8.60492
347.464	-17.03383
347.68	-8.60492
347.896	-33.89048
348.112	10.36155
348.328	-10.71218
348.544	8.25407
348.76	50.4082
348.975	-17.03383
349.191	8.25407
349.407	-14.92664
349.623	-17.03383
349.839	-0.17561
350.055	27.22227
350.27	31.43768
350.486	-42.31821
350.702	-0.17561
350.918	39.86879
351.133	25.11459
351.349	-4.39031
351.565	-40.21131
351.781	50.4082
351.996	10.36155
352.212	-78.13156
352.428	41.97663
352.644	-8.60492
352.859	18.79172
353.075	-33.89048
353.291	-2.28298
353.506	67.27246
353.722	33.54542
353.938	-73.91861
354.153	-29.67646
354.369	31.43768
354.584	35.65319
354.8	-23.35526
355.016	-50.74553
355.231	-38.10439
355.447	-0.17561
355.662	-31.78348
355.878	46.19237
356.093	-54.95905
356.309	29.32996
356.524	18.79172
356.74	44.08449
356.955	-17.03383
357.171	4.03918
357.386	33.54542
357.602	23.00695
357.817	4.03918
358.033	-44.42508
358.248	-0.17561
358.464	75.70514
358.679	56.73213
358.895	16.68414
359.11	-21.24814
359.325	1.93177
359.541	44.08449
359.756	25.11459
359.972	14.57659
360.187	-0.17561
360.402	63.05626
360.618	25.11459
360.833	4.03918
361.048	73.59693
361.264	35.65319
361.479	29.32996
361.694	50.4082
361.909	-17.03383
362.125	-0.17561
362.34	46.19237
362.555	4.03918
362.77	8.25407
362.986	-97.08857
363.201	41.97663
363.416	10.36155
363.631	-46.53192
363.847	6.14661
364.062	60.94819
364.277	-8.60492
364.492	4.03918
364.707	-17.03383
364.922	50.4082
365.138	20.89932
365.353	44.08449
365.568	37.76098
365.783	-8.60492
365.998	-12.81942
366.213	77.81336
366.428	-12.81942
366.643	25.11459
366.858	52.51615
367.073	107.33087
367.288	25.11459
367.503	-27.56942
367.718	1.93177
367.933	77.81336
368.148	-25.46235
368.363	50.4082
368.578	67.27246
368.793	-25.46235
369.008	-4.39031
369.223	16.68414
369.438	67.27246
369.653	-8.60492
369.868	33.54542
370.083	-8.60492
370.298	63.05626
370.513	6.14661
370.728	-35.99745
370.943	-33.89048
371.157	44.08449
371.372	-57.06577
371.587	-90.7698
371.802	29.32996
372.017	4.03918
372.232	16.68414
372.446	-17.03383
372.661	27.22227
372.876	-12.81942
373.091	41.97663
373.306	-42.31821
373.52	16.68414
373.735	-8.60492
373.95	33.54542
374.165	-40.21131
374.379	-14.92664
374.594	58.84015
374.809	58.84015
375.023	37.76098
375.238	67.27246
375.453	-42.31821
375.667	12.46906
375.882	33.54542
376.097	39.86879
376.311	-25.46235
376.526	-10.71218
376.741	75.70514
376.955	27.22227
377.17	-21.24814
377.384	8.25407
377.599	-4.39031
377.813	16.68414
378.028	-29.67646
378.242	-23.35526
378.457	-57.06577
378.672	-10.71218
378.886	-33.89048
379.101	1.93177
379.315	25.11459
379.53	-46.53192
379.744	-33.89048
379.958	35.65319
380.173	41.97663
380.387	84.13817
380.602	-50.74553
380.816	33.54542
381.031	-8.60492
381.245	44.08449
381.459	41.97663
381.674	29.32996
381.888	20.89932
382.103	52.51615
382.317	44.08449
382.531	-17.03383
382.746	27.22227
382.96	-8.60492
383.174	-0.17561
383.388	23.00695
383.603	41.97663
383.817	75.70514
384.031	-19.141
384.246	-40.21131
384.46	25.11459
384.674	23.00695
384.888	41.97663
385.103	50.4082
385.317	-6.49763
385.531	6.14661
385.745	20.89932
385.959	54.62413
386.174	-4.39031
386.388	-14.92664
386.602	25.11459
386.816	12.46906
387.03	77.81336
387.244	46.19237
387.458	-23.35526
387.672	20.89932
387.887	-42.31821
388.101	33.54542
388.315	12.46906
388.529	41.97663
388.743	-8.60492
388.957	-4.39031
389.171	75.70514
389.385	1.93177
389.599	46.19237
389.813	4.03918
390.027	69.38059
390.241	1.93177
390.455	41.97663
390.669	-6.49763
390.883	103.11382
391.097	29.32996
391.311	16.68414
391.525	-6.49763
391.738	60.94819
391.952	-31.78348
392.166	23.00695
392.38	8.25407
392.594	-0.17561
392.808	31.43768
393.022	-0.17561
393.236	41.97663
393.449	4.03918
393.663	-8.60492
393.877	44.08449
394.091	-8.60492
394.305	8.25407
394.518	29.32996
394.732	69.38059
394.946	-25.46235
395.16	-10.71218
395.373	-12.81942
395.587	128.41744
395.801	10.36155
396.015	-42.31821
396.228	63.05626
396.442	-6.49763
396.656	16.68414
396.869	77.81336
397.083	54.62413
397.297	54.62413
397.51	10.36155
397.724	16.68414
397.938	25.11459
398.151	54.62413
398.365	65.16435
398.578	8.25407
398.792	44.08449
399.005	37.76098
399.219	52.51615
399.433	18.79172
399.646	67.27246
399.86	16.68414
400.073	-21.24814
400.287	-0.17561
400.5	63.05626
400.714	29.32996
400.927	33.54542
401.141	46.19237
401.354	25.11459
401.567	-8.60492
401.781	50.4082
401.994	50.4082
402.208	-54.95905
402.421	-12.81942
402.635	18.79172
402.848	10.36155
403.061	-97.08857
403.275	6.14661
403.488	-29.67646
403.701	-21.24814
403.915	-23.35526
404.128	50.4082
404.341	25.11459
404.555	-12.81942
404.768	8.25407
404.981	-33.89048
405.195	-17.03383
405.408	-4.39031
405.621	-67.59898
405.834	-23.35526
406.048	-0.17561
406.261	1.93177
406.474	54.62413
406.687	96.7884
406.9	31.43768
407.114	-2.28298
407.327	56.73213
407.54	-23.35526
407.753	-27.56942
407.966	14.57659
408.179	63.05626
408.392	56.73213
408.605	56.73213
408.819	31.43768
409.032	-0.17561
409.245	-25.46235
409.458	23.00695
409.671	-12.81942
409.884	-21.24814
410.097	-29.67646
410.31	16.68414
410.523	25.11459
410.736	-29.67646
410.949	-19.141
411.162	-0.17561
411.375	6.14661
411.588	-10.71218
411.801	-6.49763
412.014	60.94819
412.227	-6.49763
412.44	67.27246
412.653	-63.38577
412.865	35.65319
413.078	48.30027
413.291	44.08449
413.504	-14.92664
413.717	-8.60492
413.93	-21.24814
414.143	58.84015
414.356	29.32996
414.568	41.97663
414.781	12.46906
414.994	50.4082
415.207	-14.92664
415.42	71.48875
415.632	-29.67646
415.845	8.25407
416.058	20.89932
416.271	-4.39031
416.483	-48.63874
416.696	115.76524
416.909	-6.49763
417.121	-65.49239
417.334	-14.92664
417.547	33.54542
417.759	1.93177
417.972	-8.60492
418.185	4.03918
418.397	6.14661
418.61	52.51615
418.823	58.84015
419.035	-42.31821
419.248	-0.17561
419.46	-14.92664
419.673	-27.56942
419.885	86.24649
420.098	-8.60492
420.311	41.97663
420.523	27.22227
420.736	41.97663
420.948	8.25407
421.161	14.57659
421.373	73.59693
421.586	41.97663
421.798	20.89932
422.01	41.97663
422.223	4.03918
422.435	-19.141
422.648	-25.46235
422.86	-4.39031
423.073	18.79172
423.285	-8.60492
423.497	63.05626
423.71	4.03918
423.922	18.79172
424.134	-6.49763
424.347	1.93177
424.559	-17.03383
424.771	-8.60492
424.984	14.57659
425.196	90.46319
425.408	29.32996
425.621	60.94819
425.833	-4.39031
426.045	41.97663
426.257	98.89685
426.47	-25.46235
426.682	84.13817
426.894	41.97663
427.106	14.57659
427.318	94.67998
427.531	23.00695
427.743	-10.71218
427.955	4.03918
428.167	-54.95905
428.379	101.00532
428.591	14.57659
428.804	16.68414
429.016	27.22227
429.228	98.89685
429.44	-29.67646
429.652	-0.17561
429.864	16.68414
430.076	10.36155
430.288	-31.78348
430.5	-0.17561
430.712	-0.17561
430.924	-27.56942
431.136	-8.60492
431.348	-33.89048
431.56	4.03918
431.772	4.03918
431.984	103.11382
432.196	73.59693
432.408	52.51615
432.62	18.79172
432.832	84.13817
433.044	-25.46235
433.256	12.46906
433.468	39.86879
433.679	25.11459
433.891	-6.49763
434.103	6.14661
434.315	-59.17246
434.527	94.67998
434.739	27.22227
434.95	8.25407
435.162	-21.24814
435.374	37.76098
435.586	54.62413
435.798	58.84015
436.009	-33.89048
436.221	33.54542
436.433	10.36155
436.645	73.59693
436.856	20.89932
437.068	67.27246
437.28	71.48875
437.491	-21.24814
437.703	14.57659
437.915	94.67998
438.126	-38.10439
438.338	-17.03383
438.55	63.05626
438.761	75.70514
438.973	4.03918
439.184	-4.39031
439.396	-42.31821
439.608	20.89932
439.819	-29.67646
440.031	54.62413
440.242	27.22227
440.454	54.62413
440.665	73.59693
440.877	111.54801
441.088	1.93177
441.3	16.68414
441.511	44.08449
441.723	60.94819
441.934	27.22227
442.146	-0.17561
442.357	-25.46235
442.569	88.35483
442.78	56.73213
442.991	48.30027
443.203	25.11459
443.414	1.93177
443.626	-12.81942
443.837	25.11459
444.048	75.70514
444.26	35.65319
444.471	-23.35526
444.682	-73.91861
444.894	79.92161
445.105	29.32996
445.316	-25.46235
445.528	52.51615
445.739	-109.72541
445.95	-33.89048
446.161	54.62413
446.373	92.57157
446.584	41.97663
446.795	-8.60492
447.006	-8.60492
447.217	29.32996
447.429	58.84015
447.64	16.68414
447.851	12.46906
448.062	-12.81942
448.273	-4.39031
448.484	37.76098
448.695	-6.49763
448.907	35.65319
449.118	-0.17561
449.329	39.86879
449.54	23.00695
449.751	79.92161
449.962	-46.53192
450.173	31.43768
450.384	50.4082
450.595	77.81336
450.806	27.22227
451.017	29.32996
451.228	69.38059
451.439	23.00695
451.65	-4.39031
451.861	-0.17561
452.072	8.25407
452.283	-8.60492
452.494	58.84015
452.705	-8.60492
452.915	10.36155
453.126	41.97663
453.337	48.30027
453.548	1.93177
453.759	41.97663
453.97	27.22227
454.181	-12.81942
454.391	-17.03383
454.602	10.36155
454.813	50.4082
455.024	-46.53192
455.235	-29.67646
455.445	1.93177
455.656	41.97663
455.867	-59.17246
456.078	41.97663
456.288	-50.74553
456.499	75.70514
456.71	73.59693
456.921	8.25407
457.131	-0.17561
457.342	-19.141
457.553	94.67998
457.763	-6.49763
457.974	23.00695
458.184	63.05626
458.395	50.4082
458.606	-4.39031
458.816	44.08449
459.027	67.27246
459.237	-6.49763
459.448	-10.71218
459.659	-44.42508
459.869	-17.03383
460.08	25.11459
460.29	-29.67646
460.501	10.36155
460.711	67.27246
460.922	-6.49763
461.132	115.76524
461.343	8.25407
461.553	-48.63874
461.764	-35.99745
461.974	18.79172
462.184	-69.70555
462.395	-21.24814
462.605	-14.92664
462.816	29.32996
463.026	84.13817
463.236	-25.46235
463.447	16.68414
463.657	73.59693
463.867	-31.78348
464.078	-8.60492
464.288	52.51615
464.498	41.97663
464.709	-63.38577
464.919	-8.60492
465.129	27.22227
465.339	8.25407
465.55	8.25407
465.76	71.48875
465.97	94.67998
466.18	46.19237
466.391	33.54542
466.601	14.57659
466.811	18.79172
467.021	50.4082
467.231	88.35483
467.441	12.46906
467.651	33.54542
467.862	46.19237
468.072	69.38059
468.282	44.08449
468.492	27.22227
468.702	44.08449
468.912	-25.46235
469.122	8.25407
469.332	4.03918
469.542	25.11459
469.752	-59.17246
469.962	41.97663
470.172	25.11459
470.382	69.38059
470.592	-14.92664
470.802	25.11459
471.012	1.93177
471.222	82.02988
471.432	31.43768
471.642	-59.17246
471.852	29.32996
472.062	-67.59898
472.272	16.68414
472.482	-54.95905
472.691	69.38059
472.901	1.93177
473.111	-0.17561
473.321	41.97663
473.531	-27.56942
473.741	41.97663
473.95	-25.46235
474.16	-17.03383
474.37	-4.39031
474.58	50.4082
474.79	41.97663
474.999	10.36155
475.209	41.97663
475.419	37.76098
475.628	6.14661
475.838	50.4082
476.048	16.68414
476.258	115.76524
476.467	46.19237
476.677	-10.71218
476.886	-44.42508
477.096	29.32996
477.306	56.73213
477.515	10.36155
477.725	18.79172
477.935	67.27246
478.144	-44.42508
478.354	-46.53192
478.563	8.25407
478.773	-38.10439
478.982	-21.24814
479.192	37.76098
479.401	65.16435
479.611	-0.17561
479.82	16.68414
480.03	69.38059
480.239	46.19237
480.449	63.05626
480.658	46.19237
480.868	-31.78348
481.077	-88.66349
481.287	37.76098
481.496	12.46906
481.705	35.65319
481.915	-2.28298
482.124	20.89932
482.333	54.62413
482.543	8.25407
482.752	1.93177
482.961	-14.92664
483.171	-44.42508
483.38	33.54542
483.589	23.00695
483.799	-12.81942
484.008	-50.74553
484.217	10.36155
484.426	33.54542
484.636	10.36155
484.845	46.19237
485.054	54.62413
485.263	-14.92664
485.472	-31.78348
485.682	58.84015
485.891	-25.46235
486.1	60.94819
486.309	25.11459
486.518	35.65319
486.727	18.79172
486.936	-31.78348
487.146	12.46906
487.355	-6.49763
487.564	-4.39031
487.773	50.4082
487.982	96.7884
488.191	-0.17561
488.4	25.11459
488.609	10.36155
488.818	35.65319
489.027	41.97663
489.236	33.54542
489.445	20.89932
489.654	-0.17561
489.863	33.54542
490.072	107.33087
490.281	54.62413
490.49	-6.49763
490.698	-50.74553
490.907	20.89932
491.116	-14.92664
491.325	-8.60492
491.534	-46.53192
491.743	-17.03383
491.952	-14.92664
492.16	79.92161
492.369	10.36155
492.578	44.08449
492.787	25.11459
492.996	44.08449
493.204	-57.06577
493.413	27.22227
493.622	-23.35526
493.831	54.62413
494.039	20.89932
494.248	6.14661
494.457	-23.35526
494.665	-12.81942
494.874	18.79172
495.083	-50.74553
495.291	29.32996
495.5	90.46319
495.709	-42.31821
495.917	35.65319
496.126	-23.35526
496.335	8.25407
496.543	-6.49763
496.752	71.48875
496.96	16.68414
497.169	-67.59898
497.377	18.79172
497.586	60.94819
497.794	20.89932
498.003	-67.59898
498.211	101.00532
498.42	-65.49239
498.628	-67.59898
498.837	-19.141
499.045	-57.06577
499.254	33.54542
499.462	16.68414
499.671	4.03918
499.879	39.86879
500.087	4.03918
500.296	-6.49763
500.504	-10.71218
500.713	-19.141
500.921	-40.21131
501.129	-0.17561
501.338	44.08449
501.546	20.89932
501.754	4.03918
501.962	56.73213
502.171	-25.46235
502.379	16.68414
502.587	-8.60492
502.795	14.57659
503.004	27.22227
503.212	16.68414
503.42	-10.71218
503.628	33.54542
503.837	-17.03383
504.045	10.36155
504.253	-90.7698
504.461	77.81336
504.669	44.08449
504.877	-25.46235
505.085	-2.28298
505.294	-19.141
505.502	-48.63874
505.71	-8.60492
505.918	-76.0251
506.126	-0.17561
506.334	-6.49763
506.542	-0.17561
506.75	16.68414
506.958	48.30027
507.166	-12.81942
507.374	-17.03383
507.582	16.68414
507.79	16.68414
507.998	-31.78348
508.206	-14.92664
508.414	92.57157
508.622	12.46906
508.83	1.93177
509.037	-0.17561
509.245	-31.78348
509.453	-46.53192
509.661	25.11459
509.869	6.14661
510.077	50.4082
510.285	41.97663
510.492	33.54542
510.7	50.4082
510.908	39.86879
511.116	-8.60492
511.324	69.38059
511.531	60.94819
511.739	27.22227
511.947	63.05626
512.155	27.22227
512.362	41.97663
512.57	-25.46235
512.778	23.00695
512.985	33.54542
513.193	-8.60492
513.401	16.68414
513.608	79.92161
513.816	20.89932
514.024	8.25407
514.231	46.19237
514.439	23.00695
514.646	73.59693
514.854	-25.46235
515.061	65.16435
515.269	-17.03383
515.477	-38.10439
515.684	-4.39031
515.892	-4.39031
516.099	-21.24814
516.307	-19.141
516.514	50.4082
516.722	-2.28298
516.929	-21.24814
517.136	-2.28298
517.344	-27.56942
517.551	-12.81942
517.759	-17.03383
517.966	75.70514
518.173	63.05626
518.381	33.54542
518.588	98.89685
518.796	27.22227
519.003	79.92161
519.21	-0.17561
519.418	73.59693
519.625	-29.67646
519.832	4.03918
520.039	33.54542
520.247	-2.28298
520.454	67.27246
520.661	-14.92664
520.868	69.38059
521.076	8.25407
521.283	50.4082
521.49	-2.28298
521.697	-38.10439
521.904	-29.67646
522.112	20.89932
522.319	41.97663
522.526	50.4082
522.733	39.86879
522.94	-4.39031
523.147	8.25407
523.354	71.48875
523.561	-50.74553
523.768	-0.17561
523.975	41.97663
524.183	-44.42508
524.39	16.68414
524.597	-57.06577
524.804	-44.42508
525.011	16.68414
525.218	33.54542
525.425	-23.35526
525.632	8.25407
525.838	33.54542
526.045	16.68414
526.252	-38.10439
526.459	77.81336
526.666	-14.92664
526.873	-4.39031
527.08	29.32996
527.287	92.57157
527.494	58.84015
527.701	-8.60492
527.907	31.43768
528.114	33.54542
528.321	-2.28298
528.528	-52.8523
528.735	-12.81942
528.941	50.4082
529.148	-50.74553
529.355	4.03918
529.562	6.14661
529.768	-25.46235
529.975	58.84015
530.182	52.51615
530.388	-21.24814
530.595	-29.67646
530.802	-19.141
531.008	27.22227
531.215	37.76098
531.422	-17.03383
531.628	8.25407
531.835	-23.35526
532.042	67.27246
532.248	-42.31821
532.455	-4.39031
532.661	14.57659
532.868	-17.03383
533.074	25.11459
533.281	-2.28298
533.487	88.35483
533.694	-33.89048
533.9	4.03918
534.107	-59.17246
534.313	8.25407
534.52	-84.4508
534.726	-38.10439
534.933	10.36155
535.139	-8.60492
535.345	18.79172
535.552	18.79172
535.758	12.46906
535.965	4.03918
536.171	37.76098
536.377	-33.89048
536.584	96.7884
536.79	-21.24814
536.996	20.89932
537.203	4.03918
537.409	16.68414
537.615	16.68414
537.821	-38.10439
538.028	25.11459
538.234	16.68414
538.44	-0.17561
538.646	-59.17246
538.853	16.68414
539.059	52.51615
539.265	-10.71218
539.471	67.27246
539.677	12.46906
539.883	-48.63874
540.09	33.54542
540.296	-46.53192
540.502	-8.60492
540.708	18.79172
540.914	6.14661
541.12	18.79172
541.326	-6.49763
541.532	-21.24814
541.738	-63.38577
541.944	41.97663
542.15	-25.46235
542.356	46.19237
542.562	12.46906
542.768	4.03918
542.974	-54.95905
543.18	-6.49763
543.386	12.46906
543.592	117.87389
543.798	90.46319
544.004	-19.141
544.21	50.4082
544.415	54.62413
544.621	14.57659
544.827	71.48875
545.033	-8.60492
545.239	16.68414
545.445	18.79172
545.651	-17.03383
545.856	27.22227
546.062	71.48875
546.268	77.81336
546.474	44.08449
546.679	50.4082
546.885	10.36155
547.091	-54.95905
547.297	50.4082
547.502	-126.57304
547.708	27.22227
547.914	23.00695
548.119	10.36155
548.325	14.57659
548.531	10.36155
548.736	-4.39031
548.942	50.4082
549.147	-4.39031
549.353	-23.35526
549.559	33.54542
549.764	14.57659
549.97	-0.17561
550.175	10.36155
550.381	1.93177
550.586	39.86879
550.792	29.32996
550.997	96.7884
551.203	16.68414
551.408	4.03918
551.614	-0.17561
551.819	-14.92664
552.025	-61.27913
552.23	25.11459
552.435	79.92161
552.641	-0.17561
552.846	31.43768
553.052	96.7884
553.257	-10.71218
553.462	41.97663
553.668	23.00695
553.873	41.97663
554.078	18.79172
554.283	50.4082
554.489	-19.141
554.694	-63.38577
554.899	4.03918
555.105	54.62413
555.31	41.97663
555.515	25.11459
555.72	1.93177
555.925	-12.81942
556.131	71.48875
556.336	-0.17561
556.541	-48.63874
556.746	84.13817
556.951	-6.49763
557.156	-76.0251
557.361	29.32996
557.567	29.32996
557.772	25.11459
557.977	8.25407
558.182	12.46906
558.387	71.48875
558.592	37.76098
558.797	-19.141
559.002	4.03918
559.207	-12.81942
559.412	14.57659
559.617	8.25407
559.822	69.38059
560.027	10.36155
560.232	-40.21131
560.437	12.46906
560.642	4.03918
560.847	-6.49763
561.051	41.97663
561.256	-17.03383
561.461	88.35483
561.666	54.62413
561.871	-8.60492
562.076	12.46906
562.281	35.65319
562.485	-4.39031
562.69	10.36155
562.895	-0.17561
563.1	16.68414
563.305	50.4082
563.509	16.68414
563.714	-4.39031
563.919	-10.71218
564.123	29.32996
564.328	-21.24814
564.533	84.13817
564.737	-29.67646
564.942	6.14661
565.147	-101.30096
565.351	50.4082
565.556	25.11459
565.761	8.25407
565.965	-8.60492
566.17	-35.99745
566.374	16.68414
566.579	75.70514
566.784	60.94819
566.988	105.22233
567.193	101.00532
567.397	-21.24814
567.602	58.84015
567.806	-0.17561
568.011	71.48875
568.215	-2.28298
568.42	29.32996
568.624	-29.67646
568.828	-29.67646
569.033	-31.78348
569.237	33.54542
569.442	-38.10439
569.646	25.11459
569.85	20.89932
570.055	4.03918
570.259	58.84015
570.463	67.27246
570.668	-46.53192
570.872	-17.03383
571.076	4.03918
571.281	37.76098
571.485	23.00695
571.689	33.54542
571.893	84.13817
572.098	20.89932
572.302	52.51615
572.506	69.38059
572.71	27.22227
572.914	25.11459
573.119	-17.03383
573.323	14.57659
573.527	10.36155
573.731	50.4082
573.935	16.68414
574.139	-6.49763
574.343	50.4082
574.547	1.93177
574.751	69.38059
574.955	69.38059
575.159	-8.60492
575.364	-23.35526
575.568	-6.49763
575.772	48.30027
575.976	52.51615
576.18	16.68414
576.383	10.36155
576.587	69.38059
576.791	29.32996
576.995	14.57659
577.199	-8.60492
577.403	23.00695
577.607	-48.63874
577.811	-48.63874
578.015	60.94819
578.219	54.62413
578.422	-44.42508
578.626	27.22227
578.83	44.08449
579.034	-46.53192
579.238	-0.17561
579.442	-4.39031
579.645	-10.71218
579.849	33.54542
580.053	-4.39031
580.257	41.97663
580.46	46.19237
580.664	-6.49763
580.868	-10.71218
581.071	46.19237
581.275	54.62413
581.479	20.89932
581.682	12.46906
581.886	12.46906
582.09	-8.60492
582.293	-10.71218
582.497	-14.92664
582.7	44.08449
582.904	-25.46235
583.107	-2.28298
583.311	10.36155
583.515	31.43768
583.718	-21.24814
583.922	-35.99745
584.125	-23.35526
584.329	-4.39031
584.532	-8.60492
584.735	-12.81942
584.939	18.79172
585.142	4.03918
585.346	-69.70555
585.549	-8.60492
585.753	67.27246
585.956	27.22227
586.159	48.30027
586.363	-40.21131
586.566	56.73213
586.769	-6.49763
586.973	-6.49763
587.176	-69.70555
587.379	-33.89048
587.582	-44.42508
587.786	58.84015
587.989	41.97663
588.192	16.68414
588.395	75.70514
588.599	-33.89048
588.802	-4.39031
589.005	69.38059
589.208	4.03918
589.411	-23.35526
589.615	-42.31821
589.818	60.94819
590.021	1.93177
590.224	16.68414
590.427	60.94819
590.63	-25.46235
590.833	27.22227
591.036	25.11459
591.239	63.05626
591.442	25.11459
591.645	-59.17246
591.848	-4.39031
592.051	16.68414
592.254	8.25407
592.457	-8.60492
592.66	103.11382
592.863	6.14661
593.066	56.73213
593.269	-12.81942
593.472	-8.60492
593.675	37.76098
593.878	86.24649
594.081	35.65319
594.284	-46.53192
594.486	35.65319
594.689	-50.74553
594.892	12.46906
595.095	-40.21131
595.298	-54.95905
595.5	77.81336
595.703	-0.17561
595.906	33.54542
596.109	-21.24814
596.311	-25.46235
596.514	-0.17561
596.717	-19.141
596.92	-0.17561
597.122	-14.92664
597.325	-25.46235
597.528	41.97663
597.73	41.97663
597.933	-14.92664
598.136	71.48875
598.338	8.25407
598.541	58.84015
598.743	-50.74553
598.946	16.68414
599.148	33.54542
599.351	67.27246
599.554	84.13817
599.756	23.00695
599.959	8.25407
600.161	-8.60492
600.363	20.89932
600.566	82.02988
600.768	-12.81942
600.971	-21.24814
601.173	12.46906
601.376	18.79172
601.578	50.4082
601.78	-12.81942
601.983	-25.46235
602.185	-6.49763
602.388	46.19237
602.59	86.24649
602.792	-12.81942
602.995	54.62413
603.197	33.54542
603.399	35.65319
603.601	4.03918
603.804	25.11459
604.006	39.86879
604.208	63.05626
604.41	77.81336
604.613	-21.24814
604.815	-8.60492
605.017	-40.21131
605.219	67.27246
605.421	18.79172
605.623	67.27246
605.826	-12.81942
606.028	35.65319
606.23	-6.49763
606.432	-33.89048
606.634	37.76098
606.836	6.14661
607.038	16.68414
607.24	27.22227
607.442	-25.46235
607.644	54.62413
607.846	-42.31821
608.048	41.97663
608.25	33.54542
608.452	-0.17561
608.654	27.22227
608.856	14.57659
609.058	-33.89048
609.26	67.27246
609.462	-4.39031
609.664	-17.03383
609.866	16.68414
610.067	16.68414
610.269	-10.71218
610.471	18.79172
610.673	-71.81209
610.875	31.43768
611.077	16.68414
611.278	16.68414
611.48	67.27246
611.682	86.24649
611.884	33.54542
612.085	33.54542
612.287	71.48875
612.489	88.35483
612.69	-14.92664
612.892	-61.27913
613.094	60.94819
613.295	16.68414
613.497	-8.60492
613.699	86.24649
613.9	-12.81942
614.102	4.03918
614.304	-25.46235
614.505	46.19237
614.707	-25.46235
614.908	6.14661
615.11	10.36155
615.311	-42.31821
615.513	-0.17561
615.714	50.4082
615.916	63.05626
616.117	27.22227
616.319	-10.71218
616.52	37.76098
616.722	-48.63874
616.923	12.46906
617.124	-4.39031
617.326	-4.39031
617.527	111.54801
617.729	18.79172
617.93	29.32996
618.131	88.35483
618.333	20.89932
618.534	-25.46235
618.735	75.70514
618.937	-48.63874
619.138	10.36155
619.339	94.67998
619.54	41.97663
619.742	20.89932
619.943	-29.67646
620.144	44.08449
620.345	1.93177
620.546	92.57157
620.748	33.54542
620.949	16.68414
621.15	37.76098
621.351	6.14661
621.552	-76.0251
621.753	73.59693
621.954	-46.53192
622.155	88.35483
622.356	10.36155
622.558	20.89932
622.759	-17.03383
622.96	14.57659
623.161	-19.141
623.362	4.03918
623.563	-42.31821
623.764	14.57659
623.965	16.68414
624.166	-8.60492
624.366	12.46906
624.567	88.35483
624.768	-38.10439
624.969	16.68414
625.17	16.68414
625.371	-46.53192
625.572	50.4082
625.773	-14.92664
625.973	33.54542
626.174	88.35483
626.375	-52.8523
626.576	-6.49763
626.777	52.51615
626.977	-6.49763
627.178	-8.60492
627.379	-0.17561
627.58	10.36155
627.78	75.70514
627.981	1.93177
628.182	-0.17561
628.382	-0.17561
628.583	25.11459
628.784	-0.17561
628.984	88.35483
629.185	-63.38577
629.386	37.76098
629.586	-4.39031
629.787	107.33087
629.987	20.89932
630.188	50.4082
630.388	-46.53192
630.589	-42.31821
630.79	20.89932
630.99	18.79172
631.191	75.70514
631.391	16.68414
631.591	18.79172
631.792	-17.03383
631.992	-0.17561
632.193	-10.71218
632.393	8.25407
632.594	48.30027
632.794	6.14661
632.994	18.79172
633.195	-4.39031
633.395	29.32996
633.595	18.79172
633.796	37.76098
633.996	-0.17561
634.196	-6.49763
634.397	10.36155
634.597	-14.92664
634.797	33.54542
634.997	-19.141
635.198	56.73213
635.398	1.93177
635.598	-29.67646
635.798	-0.17561
635.998	82.02988
636.199	-71.81209
636.399	-46.53192
636.599	-17.03383
636.799	-23.35526
636.999	54.62413
637.199	63.05626
637.399	1.93177
637.599	63.05626
637.799	111.54801
637.999	-42.31821
638.199	20.89932
638.399	-6.49763
638.599	-23.35526
638.799	37.76098
638.999	67.27246
639.199	8.25407
639.399	6.14661
639.599	-8.60492
639.799	6.14661
639.999	-0.17561
640.199	35.65319
640.399	69.38059
640.599	12.46906
640.799	29.32996
640.998	-8.60492
641.198	-12.81942
641.398	50.4082
641.598	33.54542
641.798	73.59693
641.997	101.00532
642.197	-25.46235
642.397	-17.03383
642.597	6.14661
642.796	-8.60492
642.996	67.27246
643.196	-8.60492
643.395	6.14661
643.595	29.32996
643.795	33.54542
643.994	8.25407
644.194	63.05626
644.394	-14.92664
644.593	20.89932
644.793	-4.39031
644.992	-19.141
645.192	25.11459
645.392	-31.78348
645.591	10.36155
645.791	88.35483
645.99	46.19237
646.19	16.68414
646.389	8.25407
646.589	44.08449
646.788	20.89932
646.987	109.43943
647.187	-31.78348
647.386	-12.81942
647.586	12.46906
647.785	63.05626
647.984	-38.10439
648.184	-73.91861
648.383	8.25407
648.582	67.27246
648.782	50.4082
648.981	1.93177
649.18	-23.35526
649.38	20.89932
649.579	8.25407
649.778	16.68414
649.977	4.03918
650.177	14.57659
650.376	41.97663
650.575	41.97663
650.774	-40.21131
650.973	20.89932
651.173	-25.46235
651.372	-33.89048
651.571	18.79172
651.77	16.68414
651.969	33.54542
652.168	12.46906
652.367	37.76098
652.566	71.48875
652.765	-50.74553
652.964	94.67998
653.163	29.32996
653.362	67.27246
653.561	-14.92664
653.76	4.03918
653.959	35.65319
654.158	52.51615
654.357	-33.89048
654.556	-0.17561
654.755	-12.81942
654.954	71.48875
655.153	-8.60492
655.352	12.46906
655.551	50.4082
655.749	-17.03383
655.948	16.68414
656.147	50.4082
656.346	-21.24814
656.545	18.79172
656.743	18.79172
656.942	-6.49763
657.141	-42.31821
657.34	-29.67646
657.538	60.94819
657.737	-14.92664
657.936	58.84015
658.135	50.4082
658.333	54.62413
658.532	67.27246
658.731	10.36155
658.929	41.97663
659.128	10.36155
659.326	-48.63874
659.525	41.97663
659.724	54.62413
659.922	-4.39031
660.121	-8.60492
660.319	50.4082
660.518	92.57157
660.716	41.97663
660.915	20.89932
661.113	-17.03383
661.312	-2.28298
661.51	4.03918
661.709	63.05626
661.907	-8.60492
662.105	-0.17561
662.304	16.68414
662.502	79.92161
662.701	-50.74553
662.899	25.11459
663.097	-63.38577
663.296	-8.60492
663.494	46.19237
663.692	18.79172
663.891	-38.10439
664.089	-23.35526
664.287	50.4082
664.485	25.11459
664.684	33.54542
664.882	109.43943
665.08	-52.8523
665.278	-25.46235
665.476	67.27246
665.675	25.11459
665.873	67.27246
666.071	41.97663
666.269	-17.03383
666.467	117.87389
666.665	33.54542
666.863	79.92161
667.061	10.36155
667.259	-31.78348
667.457	6.14661
667.655	54.62413
667.853	25.11459
668.051	-33.89048
668.249	37.76098
668.447	50.4082
668.645	20.89932
668.843	-31.78348
669.041	4.03918
669.239	-14.92664
669.437	23.00695
669.635	71.48875
669.833	41.97663
670.031	69.38059
670.229	-19.141
670.426	8.25407
670.624	-44.42508
670.822	-33.89048
671.02	88.35483
671.218	-50.74553
671.415	16.68414
671.613	23.00695
671.811	-4.39031
672.009	-8.60492
672.206	-59.17246
672.404	31.43768
672.602	27.22227
672.799	-12.81942
672.997	-44.42508
673.195	-23.35526
673.392	50.4082
673.59	44.08449
673.788	37.76098
673.985	23.00695
674.183	4.03918
674.38	35.65319
674.578	33.54542
674.775	29.32996
674.973	-14.92664
675.17	44.08449
675.368	-27.56942
675.565	-12.81942
675.763	41.97663
675.96	33.54542
676.158	-76.0251
676.355	37.76098
676.553	31.43768
676.75	25.11459
676.947	-0.17561
677.145	67.27246
677.342	-42.31821
677.539	-14.92664
677.737	71.48875
677.934	48.30027
678.131	-4.39031
678.329	-33.89048
678.526	-17.03383
678.723	20.89932
678.92	35.65319
679.118	41.97663
679.315	-38.10439
679.512	88.35483
679.709	-101.30096
679.906	33.54542
680.104	79.92161
680.301	14.57659
680.498	52.51615
680.695	-21.24814
680.892	-6.49763
681.089	37.76098
681.286	-25.46235
681.483	18.79172
681.68	1.93177
681.877	-0.17561
682.075	-0.17561
682.272	67.27246
682.469	84.13817
682.665	16.68414
682.862	-40.21131
683.059	16.68414
683.256	65.16435
683.453	6.14661
683.65	10.36155
683.847	-4.39031
684.044	-54.95905
684.241	33.54542
684.438	-0.17561
684.635	33.54542
684.831	-29.67646
685.028	-2.28298
685.225	-46.53192
685.422	-4.39031
685.619	-6.49763
685.815	-4.39031
686.012	65.16435
686.209	25.11459
686.405	-38.10439
686.602	65.16435
686.799	-17.03383
686.996	-31.78348
687.192	-25.46235
687.389	-8.60492
687.586	90.46319
687.782	-17.03383
687.979	10.36155
688.175	12.46906
688.372	69.38059
688.568	37.76098
688.765	-50.74553
688.962	82.02988
689.158	-23.35526
689.355	25.11459
689.551	-23.35526
689.748	10.36155
689.944	-25.46235
690.14	79.92161
690.337	-25.46235
690.533	27.22227
690.73	-33.89048
690.926	60.94819
691.123	1.93177
691.319	-17.03383
691.515	46.19237
691.712	56.73213
691.908	4.03918
692.104	-40.21131
692.301	41.97663
692.497	52.51615
692.693	10.36155
692.889	71.48875
693.086	-33.89048
693.282	20.89932
693.478	23.00695
693.674	-4.39031
693.87	41.97663
694.067	-2.28298
694.263	-54.95905
694.459	50.4082
694.655	-0.17561
694.851	92.57157
695.047	16.68414
695.243	75.70514
695.439	-6.49763
695.635	37.76098
695.831	52.51615
696.027	20.89932
696.224	-63.38577
696.42	12.46906
696.615	25.11459
696.811	20.89932
697.007	58.84015
697.203	75.70514
697.399	-6.49763
697.595	41.97663
697.791	31.43768
697.987	35.65319
698.183	12.46906
698.379	50.4082
698.575	77.81336
698.77	14.57659
698.966	-17.03383
699.162	52.51615
699.358	103.11382
699.554	8.25407
699.749	69.38059
699.945	88.35483
700.141	-50.74553
700.337	-12.81942
700.532	29.32996
700.728	27.22227
700.924	-84.4508
701.119	6.14661
701.315	23.00695
701.511	37.76098
701.706	-8.60492
701.902	6.14661
702.097	54.62413
702.293	18.79172
702.489	18.79172
702.684	12.46906
702.88	44.08449
703.075	37.76098
703.271	41.97663
703.466	73.59693
703.662	56.73213
703.857	44.08449
704.053	-48.63874
704.248	-19.141
704.443	10.36155
704.639	-33.89048
704.834	-17.03383
705.03	46.19237
705.225	10.36155
705.42	1.93177
705.616	-42.31821
705.811	12.46906
706.006	16.68414
706.202	10.36155
706.397	-25.46235
706.592	8.25407
706.787	41.97663
706.983	14.57659
707.178	8.25407
707.373	18.79172
707.568	8.25407
707.763	58.84015
707.959	-12.81942
708.154	-0.17561
708.349	31.43768
708.544	8.25407
708.739	-31.78348
708.934	65.16435
709.129	44.08449
709.324	-42.31821
709.519	37.76098
709.714	54.62413
709.909	27.22227
710.104	41.97663
710.299	25.11459
710.494	44.08449
710.689	20.89932
710.884	35.65319
711.079	58.84015
711.274	-42.31821
711.469	52.51615
711.664	23.00695
711.859	-2.28298
712.054	-50.74553
712.249	10.36155
712.443	16.68414
712.638	-10.71218
712.833	29.32996
713.028	-8.60492
713.223	-50.74553
713.417	77.81336
713.612	8.25407
713.807	-33.89048
714.002	-17.03383
714.196	46.19237
714.391	8.25407
714.586	-82.34441
714.78	18.79172
714.975	35.65319
715.17	41.97663
715.364	-19.141
715.559	-6.49763
715.754	8.25407
715.948	-67.59898
716.143	27.22227
716.337	4.03918
716.532	37.76098
716.726	50.4082
716.921	84.13817
717.115	37.76098
717.31	23.00695
717.504	-23.35526
717.699	-63.38577
717.893	-31.78348
718.088	-21.24814
718.282	-54.95905
718.476	-17.03383
718.671	46.19237
718.865	-12.81942
719.059	-4.39031
719.254	6.14661
719.448	-38.10439
719.642	14.57659
719.837	-0.17561
720.031	18.79172
720.225	-0.17561
720.419	16.68414
720.614	44.08449
720.808	8.25407
721.002	86.24649
721.196	-44.42508
721.39	-29.67646
721.585	-65.49239
721.779	10.36155
721.973	25.11459
722.167	-8.60492
722.361	-6.49763
722.555	4.03918
722.749	73.59693
722.943	46.19237
723.137	94.67998
723.331	27.22227
723.525	90.46319
723.719	46.19237
723.913	56.73213
724.107	41.97663
724.301	16.68414
724.495	-42.31821
724.689	-29.67646
724.883	-0.17561
725.077	48.30027
725.271	33.54542
725.465	18.79172
725.659	14.57659
725.853	52.51615
726.046	-8.60492
726.24	1.93177
726.434	44.08449
726.628	-17.03383
726.822	-6.49763
727.015	20.89932
727.209	16.68414
727.403	23.00695
727.596	41.97663
727.79	16.68414
727.984	20.89932
728.177	-33.89048
728.371	-12.81942
728.565	-17.03383
728.758	27.22227
728.952	46.19237
729.146	-78.13156
729.339	4.03918
729.533	-38.10439
729.726	46.19237
729.92	33.54542
730.113	-14.92664
730.307	20.89932
730.5	29.32996
730.694	25.11459
730.887	-59.17246
731.081	71.48875
731.274	54.62413
731.468	-29.67646
731.661	29.32996
731.854	50.4082
732.048	1.93177
732.241	101.00532
732.435	54.62413
732.628	101.00532
732.821	-42.31821
733.014	-67.59898
733.208	16.68414
733.401	44.08449
733.594	-2.28298
733.788	-42.31821
733.981	25.11459
734.174	56.73213
734.367	-2.28298
734.56	-46.53192
734.754	6.14661
734.947	4.03918
735.14	-10.71218
735.333	82.02988
735.526	20.89932
735.719	-33.89048
735.912	27.22227
736.105	46.19237
736.298	-4.39031
736.491	-48.63874
736.684	63.05626
736.877	75.70514
737.07	-21.24814
737.263	10.36155
737.456	6.14661
737.649	56.73213
737.842	-8.60492
738.035	-40.21131
738.228	-23.35526
738.421	33.54542
738.614	-4.39031
738.807	-21.24814
739	-10.71218
739.192	-25.46235
739.385	48.30027
739.578	-31.78348
739.771	33.54542
739.964	37.76098
740.156	12.46906
740.349	-59.17246
740.542	33.54542
740.735	-21.24814
740.927	98.89685
741.12	46.19237
741.313	37.76098
741.505	-0.17561
741.698	71.48875
741.891	60.94819
742.083	37.76098
742.276	37.76098
742.468	-4.39031
742.661	35.65319
742.854	8.25407
743.046	16.68414
743.239	23.00695
743.431	23.00695
743.624	23.00695
743.816	-38.10439
744.009	-57.06577
744.201	-8.60492
744.393	16.68414
744.586	-4.39031
744.778	-8.60492
744.971	44.08449
745.163	37.76098
745.355	58.84015
745.548	-67.59898
745.74	4.03918
745.932	54.62413
746.125	29.32996
746.317	88.35483
746.509	-14.92664
746.702	50.4082
746.894	16.68414
747.086	12.46906
747.278	16.68414
747.471	-4.39031
747.663	41.97663
747.855	52.51615
748.047	58.84015
748.239	-59.17246
748.431	-6.49763
748.623	-27.56942
748.815	60.94819
749.008	-21.24814
749.2	1.93177
749.392	-4.39031
749.584	-38.10439
749.776	39.86879
749.968	16.68414
750.16	-33.89048
750.352	44.08449
750.544	8.25407
750.736	8.25407
750.928	23.00695
751.12	8.25407
751.311	18.79172
751.503	6.14661
751.695	39.86879
751.887	16.68414
752.079	73.59693
752.271	1.93177
752.463	1.93177
752.654	16.68414
752.846	58.84015
753.038	-29.67646
753.23	-38.10439
753.421	35.65319
753.613	4.03918
753.805	20.89932
753.997	41.97663
754.188	-14.92664
754.38	-33.89048
754.572	41.97663
754.763	-0.17561
754.955	73.59693
755.146	10.36155
755.338	58.84015
755.53	16.68414
755.721	46.19237
755.913	54.62413
756.104	71.48875
756.296	54.62413
756.487	71.48875
756.679	8.25407
756.87	54.62413
757.062	-48.63874
757.253	75.70514
757.445	-54.95905
757.636	-14.92664
757.827	52.51615
758.019	-42.31821
758.21	84.13817
758.401	35.65319
758.593	27.22227
758.784	-23.35526
758.975	50.4082
759.167	18.79172
759.358	37.76098
759.549	79.92161
759.74	-46.53192
759.932	63.05626
760.123	69.38059
760.314	39.86879
760.505	37.76098
760.696	33.54542
760.888	-10.71218
761.079	20.89932
761.27	-0.17561
761.461	25.11459
761.652	41.97663
761.843	-35.99745
762.034	-19.141
762.225	50.4082
762.416	54.62413
762.607	141.07043
762.798	-59.17246
762.989	25.11459
763.18	37.76098
763.371	-35.99745
763.562	-23.35526
763.753	58.84015
763.944	-57.06577
764.135	67.27246
764.326	4.03918
764.517	41.97663
764.708	4.03918
764.899	-35.99745
765.089	-6.49763
765.28	16.68414
765.471	-8.60492
765.662	4.03918
765.853	-10.71218
766.043	8.25407
766.234	50.4082
766.425	50.4082
766.615	23.00695
766.806	6.14661
766.997	33.54542
767.187	27.22227
767.378	-27.56942
767.569	84.13817
767.759	-38.10439
767.95	50.4082
768.141	48.30027
768.331	63.05626
768.522	50.4082
768.712	-2.28298
768.903	16.68414
769.093	18.79172
769.284	1.93177
769.474	44.08449
769.665	1.93177
769.855	-17.03383
770.046	14.57659
770.236	18.79172
770.426	-40.21131
770.617	20.89932
770.807	-54.95905
770.998	-14.92664
771.188	54.62413
771.378	-0.17561
771.569	27.22227
771.759	50.4082
771.949	-21.24814
772.139	-50.74553
772.33	25.11459
772.52	-73.91861
772.71	-0.17561
772.9	-29.67646
773.09	35.65319
773.281	-92.87609
773.471	31.43768
773.661	-46.53192
773.851	-46.53192
774.041	-8.60492
774.231	41.97663
774.421	52.51615
774.611	8.25407
774.802	16.68414
774.992	67.27246
775.182	-14.92664
775.372	25.11459
775.562	8.25407
775.752	-48.63874
775.942	6.14661
776.131	12.46906
776.321	-8.60492
776.511	-17.03383
776.701	10.36155
776.891	6.14661
777.081	8.25407
777.271	10.36155
777.461	54.62413
777.651	25.11459
777.84	16.68414
778.03	16.68414
778.22	44.08449
778.41	-19.141
778.599	27.22227
778.789	-6.49763
778.979	10.36155
779.169	-4.39031
779.358	27.22227
779.548	54.62413
779.738	16.68414
779.927	-40.21131
780.117	60.94819
780.307	25.11459
780.496	75.70514
780.686	-8.60492
780.875	50.4082
781.065	-33.89048
781.254	-31.78348
781.444	12.46906
781.633	4.03918
781.823	58.84015
782.012	-25.46235
782.202	63.05626
782.391	1.93177
782.581	20.89932
782.77	-8.60492
782.96	1.93177
783.149	1.93177
783.338	41.97663
783.528	37.76098
783.717	-8.60492
783.906	8.25407
784.096	-8.60492
784.285	18.79172
784.474	-8.60492
784.663	27.22227
784.853	-2.28298
785.042	44.08449
785.231	20.89932
785.42	54.62413
785.61	-0.17561
785.799	58.84015
785.988	56.73213
786.177	60.94819
786.366	25.11459
786.555	50.4082
786.744	-38.10439
786.933	-50.74553
787.122	92.57157
787.312	18.79172
787.501	14.57659
787.69	12.46906
787.879	-14.92664
788.068	44.08449
788.257	-17.03383
788.445	25.11459
788.634	31.43768
788.823	-27.56942
789.012	8.25407
789.201	39.86879
789.39	-8.60492
789.579	50.4082
789.768	41.97663
789.957	84.13817
790.145	-10.71218
790.334	-29.67646
790.523	25.11459
790.712	-10.71218
790.9	48.30027
791.089	50.4082
791.278	46.19237
791.467	31.43768
791.655	-2.28298
791.844	-21.24814
792.033	-10.71218
792.221	-33.89048
792.41	16.68414
792.599	-21.24814
792.787	-50.74553
792.976	27.22227
793.164	25.11459
793.353	29.32996
793.541	18.79172
793.73	37.76098
793.918	138.96154
794.107	50.4082
794.295	4.03918
794.484	-6.49763
794.672	-12.81942
794.861	8.25407
795.049	25.11459
795.238	75.70514
795.426	-12.81942
795.614	20.89932
795.803	-17.03383
795.991	-0.17561
796.179	27.22227
796.368	16.68414
796.556	31.43768
796.744	-2.28298
796.932	16.68414
797.121	-31.78348
797.309	1.93177
797.497	-8.60492
797.685	1.93177
797.874	46.19237
798.062	-42.31821
798.25	75.70514
798.438	41.97663
798.626	119.98255
798.814	-17.03383
799.002	23.00695
799.19	27.22227
799.378	-14.92664
799.566	-0.17561
799.755	37.76098
799.943	50.4082
800.131	-33.89048
800.318	14.57659
800.506	39.86879
800.694	16.68414
800.882	-50.74553
801.07	-12.81942
801.258	-2.28298
801.446	65.16435
801.634	23.00695
801.822	29.32996
802.01	20.89932
802.197	25.11459
802.385	-57.06577
802.573	122.09124
802.761	33.54542
802.949	33.54542
803.136	-8.60492
803.324	50.4082
803.512	-57.06577
803.699	31.43768
803.887	94.67998
804.075	10.36155
804.262	1.93177
804.45	37.76098
804.638	-25.46235
804.825	-103.40711
805.013	-6.49763
805.201	-29.67646
805.388	52.51615
805.576	75.70514
805.763	69.38059
805.951	20.89932
806.138	-10.71218
806.326	-4.39031
806.513	-0.17561
806.701	50.4082
806.888	58.84015
807.075	-0.17561
807.263	1.93177
807.45	18.79172
807.638	58.84015
807.825	71.48875
808.012	31.43768
808.2	-52.8523
808.387	-50.74553
808.574	33.54542
808.761	69.38059
808.949	25.11459
809.136	-2.28298
809.323	-25.46235
809.51	27.22227
809.698	25.11459
809.885	111.54801
810.072	41.97663
810.259	-38.10439
810.446	33.54542
810.633	33.54542
810.82	-12.81942
811.008	4.03918
811.195	63.05626
811.382	-6.49763
811.569	18.79172
811.756	33.54542
811.943	-25.46235
812.13	12.46906
812.317	44.08449
812.504	6.14661
812.691	14.57659
812.878	60.94819
813.064	-21.24814
813.251	6.14661
813.438	-40.21131
813.625	79.92161
813.812	29.32996
813.999	50.4082
814.186	-69.70555
814.372	88.35483
814.559	-0.17561
814.746	8.25407
814.933	1.93177
815.12	75.70514
815.306	73.59693
815.493	63.05626
815.68	27.22227
815.866	-12.81942
816.053	16.68414
816.24	-17.03383
816.426	52.51615
816.613	-21.24814
816.799	-10.71218
816.986	73.59693
817.173	103.11382
817.359	16.68414
817.546	-33.89048
817.732	-25.46235
817.919	20.89932
818.105	92.57157
818.292	20.89932
818.478	-6.49763
818.665	-17.03383
818.851	84.13817
819.037	4.03918
819.224	14.57659
819.41	-35.99745
819.597	-17.03383
819.783	-6.49763
819.969	6.14661
820.156	25.11459
820.342	27.22227
820.528	-12.81942
820.714	18.79172
820.901	-21.24814
821.087	58.84015
821.273	27.22227
821.459	-82.34441
821.646	8.25407
821.832	8.25407
822.018	1.93177
822.204	-27.56942
822.39	-17.03383
822.576	27.22227
822.762	25.11459
822.948	-12.81942
823.134	29.32996
823.32	-10.71218
823.507	-8.60492
823.693	54.62413
823.879	-42.31821
824.065	33.54542
824.25	-25.46235
824.436	-8.60492
824.622	-31.78348
824.808	44.08449
824.994	23.00695
825.18	-8.60492
825.366	-57.06577
825.552	-38.10439
825.738	14.57659
825.923	50.4082
826.109	-59.17246
826.295	71.48875
826.481	-10.71218
826.667	-33.89048
826.852	-2.28298
827.038	33.54542
827.224	44.08449
827.409	-0.17561
827.595	44.08449
827.781	25.11459
827.966	-31.78348
828.152	86.24649
828.338	-33.89048
828.523	52.51615
828.709	-54.95905
828.894	67.27246
829.08	54.62413
829.266	10.36155
829.451	75.70514
829.637	-14.92664
829.822	50.4082
830.008	18.79172
830.193	16.68414
830.378	35.65319
830.564	-61.27913
830.749	46.19237
830.935	-67.59898
831.12	46.19237
831.305	54.62413
831.491	10.36155
831.676	33.54542
831.861	8.25407
832.047	8.25407
832.232	86.24649
832.417	27.22227
832.602	52.51615
832.788	20.89932
832.973	10.36155
833.158	25.11459
833.343	54.62413
833.528	18.79172
833.714	8.25407
833.899	23.00695
834.084	29.32996
834.269	71.48875
834.454	-33.89048
834.639	-4.39031
834.824	1.93177
835.009	-69.70555
835.194	16.68414
835.379	56.73213
835.564	-0.17561
835.749	105.22233
835.934	1.93177
836.119	16.68414
836.304	-42.31821
836.489	46.19237
836.674	96.7884
836.859	1.93177
837.044	18.79172
837.228	37.76098
837.413	-12.81942
837.598	67.27246
837.783	50.4082
837.968	20.89932
838.152	44.08449
838.337	20.89932
838.522	12.46906
838.707	-4.39031
838.891	39.86879
839.076	39.86879
839.261	-17.03383
839.445	50.4082
839.63	-17.03383
839.815	-12.81942
839.999	-17.03383
840.184	50.4082
840.368	88.35483
840.553	-33.89048
840.737	-25.46235
840.922	-48.63874
841.106	-40.21131
841.291	-46.53192
841.475	27.22227
841.66	33.54542
841.844	50.4082
842.029	-73.91861
842.213	-25.46235
842.397	-33.89048
842.582	-17.03383
842.766	12.46906
842.951	63.05626
843.135	8.25407
843.319	20.89932
843.504	-8.60492
843.688	37.76098
843.872	-23.35526
844.056	39.86879
844.241	44.08449
844.425	12.46906
844.609	-0.17561
844.793	23.00695
844.977	-40.21131
845.161	10.36155
845.346	63.05626
845.53	50.4082
845.714	46.19237
845.898	41.97663
846.082	-12.81942
846.266	-50.74553
846.45	60.94819
846.634	23.00695
846.818	25.11459
847.002	-23.35526
847.186	8.25407
847.37	-0.17561
847.554	8.25407
847.738	-25.46235
847.922	-8.60492
848.106	-38.10439
848.29	-29.67646
848.473	31.43768
848.657	63.05626
848.841	20.89932
849.025	71.48875
849.209	33.54542
849.392	-54.95905
849.576	-6.49763
849.76	6.14661
849.944	-21.24814
850.127	58.84015
850.311	50.4082
850.495	41.97663
850.678	-4.39031
850.862	-33.89048
851.046	-63.38577
851.229	-17.03383
851.413	-14.92664
851.596	60.94819
851.78	44.08449
851.964	37.76098
852.147	-8.60492
852.331	48.30027
852.514	56.73213
852.698	20.89932
852.881	20.89932
853.065	8.25407
853.248	-2.28298
853.431	63.05626
853.615	46.19237
853.798	12.46906
853.982	6.14661
854.165	-0.17561
854.348	1.93177
854.532	-17.03383
854.715	-42.31821
854.898	58.84015
855.081	58.84015
855.265	-8.60492
855.448	6.14661
855.631	8.25407
855.814	52.51615
855.997	86.24649
856.181	77.81336
856.364	-38.10439
856.547	10.36155
856.73	33.54542
856.913	41.97663
857.096	-14.92664
857.279	75.70514
857.462	4.03918
857.645	-38.10439
857.828	105.22233
858.011	37.76098
858.194	27.22227
858.377	18.79172
858.56	60.94819
858.743	27.22227
858.926	-97.08857
859.109	10.36155
859.292	1.93177
859.475	-31.78348
859.658	75.70514
859.841	16.68414
860.023	52.51615
860.206	-40.21131
860.389	67.27246
860.572	58.84015
860.755	6.14661
860.937	12.46906
861.12	4.03918
861.303	12.46906
861.486	-0.17561
861.668	-2.28298
861.851	29.32996
862.034	-25.46235
862.216	-46.53192
862.399	-6.49763
862.581	-23.35526
862.764	-0.17561
862.947	41.97663
863.129	50.4082
863.312	-0.17561
863.494	-4.39031
863.677	-65.49239
863.859	75.70514
864.042	-38.10439
864.224	-17.03383
864.406	79.92161
864.589	37.76098
864.771	27.22227
864.954	27.22227
865.136	52.51615
865.318	-0.17561
865.501	8.25407
865.683	16.68414
865.865	41.97663
866.048	27.22227
866.23	44.08449
866.412	33.54542
866.594	-12.81942
866.777	-71.81209
866.959	52.51615
867.141	46.19237
867.323	-27.56942
867.505	-25.46235
867.687	-73.91861
867.869	-42.31821
868.052	33.54542
868.234	29.32996
868.416	-12.81942
868.598	27.22227
868.78	41.97663
868.962	54.62413
869.144	52.51615
869.326	58.84015
869.508	58.84015
869.69	75.70514
869.872	-8.60492
870.054	67.27246
870.236	-33.89048
870.417	-21.24814
870.599	8.25407
870.781	37.76098
870.963	-14.92664
871.145	25.11459
871.327	54.62413
871.508	20.89932
871.69	27.22227
871.872	-21.24814
872.054	75.70514
872.235	-31.78348
872.417	16.68414
872.599	92.57157
872.78	41.97663
872.962	-29.67646
873.144	-84.4508
873.325	50.4082
873.507	33.54542
873.689	27.22227
873.87	-0.17561
874.052	35.65319
874.233	-6.49763
874.415	-52.8523
874.596	41.97663
874.778	96.7884
874.959	20.89932
875.141	-63.38577
875.322	20.89932
875.503	54.62413
875.685	-29.67646
875.866	-12.81942
876.048	63.05626
876.229	-0.17561
876.41	44.08449
876.592	54.62413
876.773	8.25407
876.954	63.05626
877.136	41.97663
877.317	82.02988
877.498	88.35483
877.679	58.84015
877.86	14.57659
878.042	41.97663
878.223	-2.28298
878.404	-0.17561
878.585	63.05626
878.766	33.54542
878.947	-0.17561
879.128	35.65319
879.309	56.73213
879.49	46.19237
879.672	33.54542
879.853	-0.17561
880.034	8.25407
880.215	52.51615
880.396	14.57659
880.576	41.97663
880.757	-48.63874
880.938	39.86879
881.119	4.03918
881.3	-61.27913
881.481	25.11459
881.662	46.19237
881.843	75.70514
882.023	27.22227
882.204	-21.24814
882.385	39.86879
882.566	-10.71218
882.747	48.30027
882.927	4.03918
883.108	-38.10439
883.289	33.54542
883.469	-8.60492
883.65	39.86879
883.831	50.4082
884.011	12.46906
884.192	25.11459
884.373	35.65319
884.553	-82.34441
884.734	52.51615
884.914	-21.24814
885.095	33.54542
885.275	25.11459
885.456	-21.24814
885.636	75.70514
885.817	44.08449
885.997	-42.31821
886.178	18.79172
886.358	101.00532
886.538	-42.31821
886.719	10.36155
886.899	50.4082
887.08	63.05626
887.26	-48.63874
887.44	6.14661
887.621	16.68414
887.801	-38.10439
887.981	63.05626
888.161	23.00695
888.342	25.11459
888.522	29.32996
888.702	109.43943
888.882	-67.59898
889.062	-35.99745
889.242	8.25407
889.423	-46.53192
889.603	39.86879
889.783	-27.56942
889.963	-10.71218
890.143	69.38059
890.323	12.46906
890.503	44.08449
890.683	-10.71218
890.863	-23.35526
891.043	10.36155
891.223	37.76098
891.403	44.08449
891.583	-12.81942
891.763	111.54801
891.943	27.22227
892.122	71.48875
892.302	60.94819
892.482	-33.89048
892.662	71.48875
892.842	-23.35526
893.022	18.79172
893.201	-71.81209
893.381	-0.17561
893.561	54.62413
893.741	-33.89048
893.92	27.22227
894.1	25.11459
894.28	25.11459
894.459	-44.42508
894.639	46.19237
894.819	27.22227
894.998	-8.60492
895.178	50.4082
895.357	25.11459
895.537	-2.28298
895.716	39.86879
895.896	10.36155
896.075	84.13817
896.255	-23.35526
896.434	58.84015
896.614	16.68414
896.793	29.32996
896.973	16.68414
897.152	-0.17561
897.331	67.27246
897.511	86.24649
897.69	37.76098
897.87	-12.81942
898.049	-6.49763
898.228	4.03918
898.407	-50.74553
898.587	-6.49763
898.766	71.48875
898.945	86.24649
899.124	-19.141
899.304	41.97663
899.483	58.84015
899.662	67.27246
899.841	16.68414
900.02	-25.46235
900.199	-46.53192
900.378	96.7884
900.557	39.86879
900.737	31.43768
900.916	44.08449
901.095	10.36155
901.274	88.35483
901.453	41.97663
901.632	23.00695
901.811	1.93177
901.989	-12.81942
902.168	29.32996
902.347	-57.06577
902.526	60.94819
902.705	50.4082
902.884	98.89685
903.063	-8.60492
903.242	-4.39031
903.42	35.65319
903.599	35.65319
903.778	37.76098
903.957	54.62413
904.135	4.03918
904.314	6.14661
904.493	-40.21131
904.672	-12.81942
904.85	14.57659
905.029	16.68414
905.207	1.93177
905.386	50.4082
905.565	27.22227
905.743	31.43768
905.922	18.79172
906.1	25.11459
906.279	88.35483
906.457	-10.71218
906.636	-4.39031
906.814	12.46906
906.993	16.68414
907.171	50.4082
907.35	-12.81942
907.528	58.84015
907.707	8.25407
907.885	-14.92664
908.063	16.68414
908.242	88.35483
908.42	33.54542
908.598	-54.95905
908.777	-40.21131
908.955	-27.56942
909.133	-31.78348
909.311	-25.46235
909.49	-8.60492
909.668	71.48875
909.846	18.79172
910.024	12.46906
910.202	84.13817
910.38	33.54542
910.559	-8.60492
910.737	18.79172
910.915	52.51615
911.093	-50.74553
911.271	31.43768
911.449	27.22227
911.627	-4.39031
911.805	37.76098
911.983	6.14661
912.161	-0.17561
912.339	-2.28298
912.517	77.81336
912.695	54.62413
912.872	16.68414
913.05	-82.34441
913.228	58.84015
913.406	-33.89048
913.584	25.11459
913.762	31.43768
913.939	12.46906
914.117	-4.39031
914.295	-8.60492
914.473	39.86879
914.65	-17.03383
914.828	-65.49239
915.006	75.70514
915.184	44.08449
915.361	27.22227
915.539	-23.35526
915.716	92.57157
915.894	-21.24814
916.072	46.19237
916.249	37.76098
916.427	-48.63874
916.604	31.43768
916.782	4.03918
916.959	37.76098
917.137	67.27246
917.314	-19.141
917.492	29.32996
917.669	-2.28298
917.847	-6.49763
918.024	14.57659
918.201	-31.78348
918.379	-50.74553
918.556	33.54542
918.733	16.68414
918.911	54.62413
919.088	-33.89048
919.265	37.76098
919.442	58.84015
919.62	-17.03383
919.797	-6.49763
919.974	16.68414
920.151	25.11459
920.328	-12.81942
920.506	41.97663
920.683	10.36155
920.86	-0.17561
921.037	1.93177
921.214	8.25407
921.391	25.11459
921.568	52.51615
921.745	101.00532
921.922	-2.28298
922.099	33.54542
922.276	37.76098
922.453	44.08449
922.63	-25.46235
922.807	41.97663
922.984	58.84015
923.161	4.03918
923.338	-59.17246
923.514	18.79172
923.691	6.14661
923.868	1.93177
924.045	-23.35526
924.222	63.05626
924.399	-12.81942
924.575	37.76098
924.752	-12.81942
924.929	10.36155
925.105	82.02988
925.282	50.4082
925.459	-12.81942
925.635	-12.81942
925.812	27.22227
925.989	-12.81942
926.165	48.30027
926.342	1.93177
926.518	60.94819
926.695	-21.24814
926.871	-25.46235
927.048	12.46906
927.224	41.97663
927.401	-17.03383
927.577	27.22227
927.754	-61.27913
927.93	75.70514
928.107	12.46906
928.283	-23.35526
928.459	29.32996
928.636	-42.31821
928.812	25.11459
928.988	25.11459
929.165	20.89932
929.341	-12.81942
929.517	50.4082
929.693	27.22227
929.87	44.08449
930.046	-25.46235
930.222	-50.74553
930.398	16.68414
930.574	6.14661
930.751	23.00695
930.927	63.05626
931.103	44.08449
931.279	46.19237
931.455	-31.78348
931.631	-14.92664
931.807	20.89932
931.983	27.22227
932.159	4.03918
932.335	44.08449
932.511	46.19237
932.687	75.70514
932.863	50.4082
933.039	25.11459
933.215	35.65319
933.391	1.93177
933.566	52.51615
933.742	16.68414
933.918	84.13817
934.094	-4.39031
934.27	119.98255
934.445	37.76098
934.621	-38.10439
934.797	-19.141
934.973	8.25407
935.148	18.79172
935.324	12.46906
935.5	41.97663
935.675	10.36155
935.851	56.73213
936.027	25.11459
936.202	84.13817
936.378	75.70514
936.553	6.14661
936.729	-25.46235
936.904	-40.21131
937.08	-4.39031
937.255	4.03918
937.431	16.68414
937.606	-0.17561
937.782	29.32996
937.957	25.11459
938.133	12.46906
938.308	25.11459
938.483	10.36155
938.659	-33.89048
938.834	41.97663
939.009	-27.56942
939.185	-6.49763
939.36	14.57659
939.535	-25.46235
939.71	46.19237
939.886	-27.56942
940.061	-12.81942
940.236	25.11459
940.411	-38.10439
940.586	18.79172
940.761	-21.24814
940.937	33.54542
941.112	12.46906
941.287	-17.03383
941.462	25.11459
941.637	1.93177
941.812	65.16435
941.987	63.05626
942.162	92.57157
942.337	18.79172
942.512	-25.46235
942.687	25.11459
942.862	-8.60492
943.037	50.4082
943.212	18.79172
943.386	31.43768
943.561	16.68414
943.736	-0.17561
943.911	33.54542
944.086	29.32996
944.26	-50.74553
944.435	8.25407
944.61	25.11459
944.785	33.54542
944.959	27.22227
945.134	18.79172
945.309	-42.31821
945.483	63.05626
945.658	8.25407
945.833	79.92161
946.007	-6.49763
946.182	-0.17561
946.357	-17.03383
946.531	79.92161
946.706	33.54542
946.88	-8.60492
947.055	-8.60492
947.229	-31.78348
947.404	8.25407
947.578	-6.49763
947.752	33.54542
947.927	-8.60492
948.101	14.57659
948.276	63.05626
948.45	50.4082
948.624	29.32996
948.799	-48.63874
948.973	25.11459
949.147	25.11459
949.321	14.57659
949.496	-21.24814
949.67	-6.49763
949.844	50.4082
950.018	-8.60492
950.193	-0.17561
950.367	14.57659
950.541	23.00695
950.715	84.13817
950.889	54.62413
951.063	1.93177
951.237	-0.17561
951.411	-2.28298
951.585	-59.17246
951.759	10.36155
951.933	4.03918
952.107	-19.141
952.281	67.27246
952.455	27.22227
952.629	41.97663
952.803	35.65319
952.977	94.67998
953.151	50.4082
953.325	-2.28298
953.499	-25.46235
953.672	90.46319
953.846	-31.78348
954.02	25.11459
954.194	56.73213
954.368	-0.17561
954.541	58.84015
954.715	69.38059
954.889	-50.74553
955.062	10.36155
955.236	-33.89048
955.41	35.65319
955.583	-8.60492
955.757	-8.60492
955.93	-8.60492
956.104	56.73213
956.278	-27.56942
956.451	-17.03383
956.625	-10.71218
956.798	10.36155
956.972	8.25407
957.145	-23.35526
957.319	75.70514
957.492	4.03918
957.665	101.00532
957.839	56.73213
958.012	16.68414
958.185	84.13817
958.359	1.93177
958.532	-8.60492
958.705	31.43768
958.879	58.84015
959.052	71.48875
959.225	-0.17561
959.398	29.32996
959.572	-33.89048
959.745	29.32996
959.918	71.48875
960.091	1.93177
960.264	-50.74553
960.438	48.30027
960.611	-10.71218
960.784	4.03918
960.957	6.14661
961.13	33.54542
961.303	-14.92664
961.476	31.43768
961.649	-6.49763
961.822	-54.95905
961.995	12.46906
962.168	-38.10439
962.341	27.22227
962.514	56.73213
962.686	50.4082
962.859	-29.67646
963.032	-42.31821
963.205	8.25407
963.378	25.11459
963.551	-76.0251
963.723	-12.81942
963.896	-42.31821
964.069	16.68414
964.242	16.68414
964.414	46.19237
964.587	46.19237
964.76	-10.71218
964.932	20.89932
965.105	-0.17561
965.278	-12.81942
965.45	48.30027
965.623	29.32996
965.795	101.00532
965.968	-14.92664
966.14	63.05626
966.313	4.03918
966.485	54.62413
966.658	46.19237
966.83	-17.03383
967.003	48.30027
967.175	-0.17561
967.348	63.05626
967.52	41.97663
967.692	33.54542
967.865	-17.03383
968.037	-57.06577
968.209	16.68414
968.382	25.11459
968.554	35.65319
968.726	-25.46235
968.898	63.05626
969.071	10.36155
969.243	41.97663
969.415	50.4082
969.587	16.68414
969.759	50.4082
969.932	48.30027
970.104	-29.67646
970.276	12.46906
970.448	60.94819
970.62	33.54542
970.792	107.33087
970.964	-54.95905
971.136	-33.89048
971.308	46.19237
971.48	-61.27913
971.652	8.25407
971.824	16.68414
971.996	50.4082
972.168	-21.24814
972.339	52.51615
972.511	35.65319
972.683	48.30027
972.855	12.46906
973.027	-12.81942
973.199	63.05626
973.37	-31.78348
973.542	67.27246
973.714	18.79172
973.886	12.46906
974.057	4.03918
974.229	-50.74553
974.401	39.86879
974.572	54.62413
974.744	58.84015
974.915	63.05626
975.087	16.68414
975.259	25.11459
975.43	33.54542
975.602	41.97663
975.773	-0.17561
975.945	8.25407
976.116	69.38059
976.288	60.94819
976.459	-29.67646
976.63	10.36155
976.802	-38.10439
976.973	-31.78348
977.145	39.86879
977.316	-57.06577
977.487	-23.35526
977.659	20.89932
977.83	4.03918
978.001	69.38059
978.172	-23.35526
978.344	12.46906
978.515	69.38059
978.686	20.89932
978.857	44.08449
979.028	33.54542
979.2	56.73213
979.371	94.67998
979.542	65.16435
979.713	-17.03383
979.884	6.14661
980.055	16.68414
980.226	1.93177
980.397	60.94819
980.568	-8.60492
980.739	35.65319
980.91	12.46906
981.081	-40.21131
981.252	39.86879
981.423	16.68414
981.594	29.32996
981.765	25.11459
981.936	20.89932
982.106	119.98255
982.277	33.54542
982.448	-8.60492
982.619	-61.27913
982.79	-2.28298
982.96	67.27246
983.131	107.33087
983.302	25.11459
983.472	-2.28298
983.643	-17.03383
983.814	-6.49763
983.984	-2.28298
984.155	-46.53192
984.326	18.79172
984.496	33.54542
984.667	33.54542
984.837	12.46906
985.008	130.52622
985.178	-42.31821
985.349	1.93177
985.519	44.08449
985.69	23.00695
985.86	-12.81942
986.031	60.94819
986.201	56.73213
986.371	18.79172
986.542	-8.60492
986.712	8.25407
986.882	1.93177
987.053	41.97663
987.223	77.81336
987.393	41.97663
987.563	-17.03383
987.734	44.08449
987.904	54.62413
988.074	37.76098
988.244	31.43768
988.414	10.36155
988.585	20.89932
988.755	35.65319
988.925	-33.89048
989.095	-46.53192
989.265	-25.46235
989.435	54.62413
989.605	4.03918
989.775	44.08449
989.945	-25.46235
990.115	94.67998
990.285	77.81336
990.455	25.11459
990.625	33.54542
990.795	41.97663
990.965	41.97663
991.134	-4.39031
991.304	12.46906
991.474	115.76524
991.644	-8.60492
991.814	52.51615
991.984	-29.67646
992.153	12.46906
992.323	-21.24814
992.493	18.79172
992.662	-8.60492
992.832	-2.28298
993.002	52.51615
993.171	71.48875
993.341	-44.42508
993.511	4.03918
993.68	8.25407
993.85	-0.17561
994.019	23.00695
994.189	-17.03383
994.358	-21.24814
994.528	41.97663
994.697	16.68414
994.867	29.32996
995.036	39.86879
995.206	58.84015
995.375	60.94819
995.544	113.65661
995.714	1.93177
995.883	-29.67646
996.052	52.51615
996.222	46.19237
996.391	35.65319
996.56	16.68414
996.73	-21.24814
996.899	-25.46235
997.068	16.68414
997.237	18.79172
997.406	63.05626
997.576	58.84015
997.745	27.22227
997.914	-8.60492
998.083	-12.81942
998.252	8.25407
998.421	37.76098
998.59	-12.81942
998.759	98.89685
998.928	4.03918
999.097	54.62413
999.266	-14.92664
999.435	-29.67646
999.604	35.65319
999.773	-42.31821
999.942	44.08449
1000.111	-12.81942
1000.28	-73.91861
1000.448	67.27246
1000.617	33.54542
1000.786	33.54542
1000.955	77.81336
1001.124	-23.35526
1001.292	-69.70555
1001.461	16.68414
1001.63	119.98255
1001.798	-35.99745
1001.967	37.76098
1002.136	46.19237
1002.304	44.08449
1002.473	-8.60492
1002.642	16.68414
1002.81	25.11459
1002.979	33.54542
1003.147	20.89932
1003.316	-0.17561
1003.484	-2.28298
1003.653	-6.49763
1003.821	23.00695
1003.99	-0.17561
1004.158	-6.49763
1004.327	-0.17561
1004.495	-2.28298
1004.663	79.92161
1004.832	8.25407
1005	20.89932
1005.168	39.86879
1005.337	69.38059
1005.505	-10.71218
1005.673	84.13817
1005.842	10.36155
1006.01	46.19237
1006.178	-29.67646
1006.346	16.68414
1006.514	-50.74553
1006.683	33.54542
1006.851	16.68414
1007.019	-8.60492
1007.187	52.51615
1007.355	-0.17561
1007.523	27.22227
1007.691	-19.141
1007.859	23.00695
1008.027	58.84015
1008.195	-6.49763
1008.363	33.54542
1008.531	-23.35526
1008.699	-46.53192
1008.867	-59.17246
1009.035	-4.39031
1009.203	27.22227
1009.37	41.97663
1009.538	-50.74553
1009.706	29.32996
1009.874	63.05626
1010.042	-50.74553
1010.209	-0.17561
1010.377	-21.24814
1010.545	-8.60492
1010.713	-63.38577
1010.88	12.46906
1011.048	20.89932
1011.216	-0.17561
1011.383	33.54542
1011.551	-0.17561
1011.718	4.03918
1011.886	84.13817
1012.054	-42.31821
1012.221	10.36155
1012.389	-0.17561
1012.556	1.93177
1012.724	33.54542
1012.891	-50.74553
1013.058	8.25407
1013.226	-29.67646
1013.393	44.08449
1013.561	-8.60492
1013.728	-21.24814
1013.895	-4.39031
1014.063	-17.03383
1014.23	23.00695
1014.397	-59.17246
1014.565	1.93177
1014.732	39.86879
1014.899	77.81336
1015.066	33.54542
1015.233	-12.81942
1015.401	37.76098
1015.568	23.00695
1015.735	33.54542
1015.902	63.05626
1016.069	63.05626
1016.236	-6.49763
1016.403	-40.21131
1016.57	50.4082
1016.737	25.11459
1016.904	-82.34441
1017.071	35.65319
1017.238	52.51615
1017.405	-29.67646
1017.572	-25.46235
1017.739	39.86879
1017.906	-50.74553
1018.073	-14.92664
1018.24	10.36155
1018.407	-31.78348
1018.573	-8.60492
1018.74	48.30027
1018.907	12.46906
1019.074	69.38059
1019.241	69.38059
1019.407	4.03918
1019.574	-12.81942
1019.741	18.79172
1019.907	-40.21131
1020.074	77.81336
1020.241	14.57659
1020.407	71.48875
1020.574	16.68414
1020.74	-0.17561
1020.907	12.46906
1021.073	27.22227
1021.24	86.24649
1021.406	-2.28298
1021.573	37.76098
1021.739	115.76524
1021.906	71.48875
1022.072	-33.89048
1022.239	8.25407
1022.405	10.36155
1022.571	-8.60492
1022.738	-31.78348
1022.904	12.46906
1023.07	33.54542
1023.237	-8.60492
1023.403	54.62413
1023.569	16.68414
1023.735	77.81336
1023.902	-8.60492
1024.068	-67.59898
1024.234	-19.141
1024.4	-31.78348
1024.566	50.4082
1024.732	46.19237
1024.898	37.76098
1025.065	-21.24814
1025.231	18.79172
1025.397	-0.17561
1025.563	20.89932
1025.729	23.00695
1025.895	50.4082
1026.061	46.19237
1026.227	46.19237
1026.392	39.86879
1026.558	-17.03383
1026.724	50.4082
1026.89	35.65319
1027.056	48.30027
1027.222	35.65319
1027.388	-38.10439
1027.553	20.89932
1027.719	-40.21131
1027.885	-8.60492
1028.051	23.00695
1028.216	25.11459
1028.382	4.03918
1028.548	-21.24814
1028.713	-8.60492
1028.879	50.4082
1029.045	54.62413
1029.21	-33.89048
1029.376	27.22227
1029.541	8.25407
1029.707	-10.71218
1029.873	-71.81209
1030.038	4.03918
1030.204	-21.24814
1030.369	-82.34441
1030.534	84.13817
1030.7	35.65319
1030.865	-29.67646
1031.031	33.54542
1031.196	8.25407
1031.361	-0.17561
1031.527	73.59693
1031.692	63.05626
1031.857	14.57659
1032.023	20.89932
1032.188	103.11382
1032.353	73.59693
1032.518	-23.35526
1032.684	50.4082
1032.849	16.68414
1033.014	-17.03383
1033.179	25.11459
1033.344	-25.46235
1033.509	10.36155
1033.674	-25.46235
1033.839	60.94819
1034.004	27.22227
1034.17	20.89932
1034.335	58.84015
1034.5	-17.03383
1034.664	4.03918
1034.829	25.11459
1034.994	-109.72541
1035.159	37.76098
1035.324	25.11459
1035.489	-61.27913
1035.654	-42.31821
1035.819	-52.8523
1035.984	8.25407
1036.148	-27.56942
1036.313	29.32996
1036.478	27.22227
1036.643	90.46319
1036.807	-17.03383
1036.972	6.14661
1037.137	37.76098
1037.301	79.92161
1037.466	18.79172
1037.631	82.02988
1037.795	-25.46235
1037.96	58.84015
1038.124	-46.53192
1038.289	-21.24814
1038.454	-33.89048
1038.618	41.97663
1038.783	-31.78348
1038.947	41.97663
1039.111	73.59693
1039.276	33.54542
1039.44	-4.39031
1039.605	4.03918
1039.769	4.03918
1039.933	-12.81942
1040.098	54.62413
1040.262	56.73213
1040.426	33.54542
1040.591	-29.67646
1040.755	41.97663
1040.919	37.76098
1041.083	-23.35526
1041.248	60.94819
1041.412	67.27246
1041.576	35.65319
1041.74	-23.35526
1041.904	-21.24814
1042.068	-69.70555
1042.232	41.97663
1042.397	58.84015
1042.561	50.4082
1042.725	65.16435
1042.889	-0.17561
1043.053	92.57157
1043.217	25.11459
1043.381	-63.38577
1043.544	54.62413
1043.708	-61.27913
1043.872	33.54542
1044.036	31.43768
1044.2	-25.46235
1044.364	-33.89048
1044.528	39.86879
1044.691	23.00695
1044.855	84.13817
1045.019	-0.17561
1045.183	56.73213
1045.346	-25.46235
1045.51	-8.60492
1045.674	-25.46235
1045.837	-33.89048
1046.001	-65.49239
1046.165	8.25407
1046.328	-17.03383
1046.492	10.36155
1046.655	-25.46235
1046.819	39.86879
1046.983	-14.92664
1047.146	-2.28298
1047.31	-48.63874
1047.473	10.36155
1047.636	46.19237
1047.8	-4.39031
1047.963	71.48875
1048.127	16.68414
1048.29	23.00695
