Data from Scatter_Coeff_Baseline_USB4F045381__48__0048.txt Node

Date: Thu Feb 13 19:32:16 EST 2025
User: mmckonesweet
Spectrometer: USB4F04538
Trigger mode: 4
Integration Time (sec): 2.400000E-3
Scans to average: 1
Electric dark correction enabled: true
Nonlinearity correction enabled: true
Boxcar width: 0
XAxis mode: Wavelengths
Number of Pixels in Spectrum: 3648
>>>>>Begin Spectral Data<<<<<
345.52	20.72369
345.736	20.72369
345.952	20.72369
346.168	8.07845
346.384	18.61609
346.6	-12.99502
346.816	-4.56592
347.032	-34.06606
347.248	10.18593
347.464	10.18593
347.68	-10.88778
347.896	10.18593
348.112	24.93896
348.328	24.93896
348.544	-23.53085
348.76	46.01671
348.975	-40.38689
349.191	-4.56592
349.407	-61.45468
349.623	58.66448
349.839	-55.13461
350.055	-0.35123
350.27	-2.45859
350.486	3.86356
350.702	69.20492
350.918	-0.35123
351.133	-6.67324
351.349	-86.73269
351.565	-8.78052
351.781	111.37229
351.996	-55.13461
352.212	-0.35123
352.428	24.93896
352.644	58.66448
352.859	-17.20943
353.075	-15.10224
353.291	33.36978
353.506	-55.13461
353.722	-4.56592
353.938	24.93896
354.153	24.93896
354.369	-8.78052
354.584	41.80097
354.8	-34.06606
355.016	-6.67324
355.231	18.61609
355.447	-19.31659
355.662	-40.38689
355.878	-27.74501
356.093	10.18593
356.309	-34.06606
356.524	-12.99502
356.74	52.34049
356.955	-25.63794
357.171	67.09678
357.386	-19.31659
357.602	83.96248
357.817	-46.70749
358.033	-12.99502
358.248	-17.20943
358.464	-31.95906
358.679	67.09678
358.895	60.77252
359.11	-8.78052
359.325	-50.9211
359.541	8.07845
359.756	-4.56592
359.972	-15.10224
360.187	-0.35123
360.402	8.07845
360.618	24.93896
360.833	-63.56133
361.048	1.75615
361.264	-25.63794
361.479	27.04663
361.694	-48.81431
361.909	-21.42373
362.125	-42.49378
362.34	-12.99502
362.555	-63.56133
362.77	27.04663
362.986	-46.70749
363.201	37.58533
363.416	-12.99502
363.631	10.18593
363.847	-8.78052
364.062	-4.56592
364.277	-8.78052
364.492	3.86356
364.707	20.72369
364.922	-6.67324
365.138	37.58533
365.353	-19.31659
365.568	10.18593
365.783	1.75615
365.998	-31.95906
366.213	43.90883
366.428	50.23254
366.643	33.36978
366.858	8.07845
367.073	10.18593
367.288	-48.81431
367.503	1.75615
367.718	-8.78052
367.933	-27.74501
368.148	-15.10224
368.363	20.72369
368.578	18.61609
368.793	29.15432
369.008	-12.99502
369.223	22.83131
369.438	10.18593
369.653	-6.67324
369.868	-4.56592
370.083	39.69314
370.298	-10.88778
370.513	-6.67324
370.728	16.50851
370.943	52.34049
371.157	-59.34802
371.372	31.26204
371.587	-17.20943
371.802	-6.67324
372.017	12.29343
372.232	-8.78052
372.446	33.36978
372.661	-42.49378
372.876	-57.24133
373.091	24.93896
373.306	33.36978
373.52	41.80097
373.735	-4.56592
373.95	-34.06606
374.165	8.07845
374.379	-6.67324
374.594	-50.9211
374.809	1.75615
375.023	43.90883
375.238	1.75615
375.453	-31.95906
375.667	-17.20943
375.882	18.61609
376.097	-25.63794
376.311	48.12461
376.526	48.12461
376.741	27.04663
376.955	-48.81431
377.17	16.50851
377.384	-0.35123
377.599	-8.78052
377.813	12.29343
378.028	83.96248
378.242	58.66448
378.457	18.61609
378.672	3.86356
378.886	5.97099
379.101	10.18593
379.315	24.93896
379.53	8.07845
379.744	18.61609
379.958	37.58533
380.173	-21.42373
380.387	-34.06606
380.602	5.97099
380.816	33.36978
381.031	10.18593
381.245	43.90883
381.459	58.66448
381.674	8.07845
381.888	-8.78052
382.103	-0.35123
382.317	18.61609
382.531	-12.99502
382.746	-109.90091
382.96	88.17913
383.174	35.47754
383.388	41.80097
383.603	86.0708
383.817	-0.35123
384.031	119.80683
384.246	83.96248
384.46	-23.53085
384.674	43.90883
384.888	8.07845
385.103	24.93896
385.317	-15.10224
385.531	18.61609
385.745	8.07845
385.959	43.90883
386.174	3.86356
386.388	-59.34802
386.602	-38.27997
386.816	-44.60065
387.03	-23.53085
387.244	3.86356
387.458	54.44846
387.672	-15.10224
387.887	12.29343
388.101	-15.10224
388.315	1.75615
388.529	58.66448
388.743	27.04663
388.957	-17.20943
389.171	37.58533
389.385	3.86356
389.599	24.93896
389.813	-6.67324
390.027	-29.85205
390.241	16.50851
390.455	27.04663
390.669	1.75615
390.883	43.90883
391.097	64.98867
391.311	-55.13461
391.525	60.77252
391.738	24.93896
391.952	5.97099
392.166	10.18593
392.38	-10.88778
392.594	-46.70749
392.808	10.18593
393.022	77.63768
393.236	1.75615
393.449	-63.56133
393.663	27.04663
393.877	-12.99502
394.091	10.18593
394.305	39.69314
394.518	41.80097
394.732	31.26204
394.946	-17.20943
395.16	41.80097
395.373	31.26204
395.587	-36.17303
395.801	-12.99502
396.015	35.47754
396.228	67.09678
396.442	3.86356
396.656	-25.63794
396.869	24.93896
397.083	27.04663
397.297	62.88058
397.51	41.80097
397.724	8.07845
397.938	37.58533
398.151	33.36978
398.365	58.66448
398.578	12.29343
398.792	-23.53085
399.005	-15.10224
399.219	92.39587
399.433	8.07845
399.646	41.80097
399.86	-6.67324
400.073	46.01671
400.287	18.61609
400.5	81.85419
400.714	-0.35123
400.927	1.75615
401.141	16.50851
401.354	67.09678
401.567	-42.49378
401.781	8.07845
401.994	-23.53085
402.208	-25.63794
402.421	-15.10224
402.635	24.93896
402.848	-17.20943
403.061	50.23254
403.275	-55.13461
403.488	-29.85205
403.701	29.15432
403.915	56.55646
404.128	14.40096
404.341	10.18593
404.555	-10.88778
404.768	24.93896
404.981	62.88058
405.195	71.31307
405.408	-17.20943
405.621	24.93896
405.834	-50.9211
406.048	-0.35123
406.261	50.23254
406.474	69.20492
406.687	-8.78052
406.9	-25.63794
407.114	-93.05161
407.327	64.98867
407.54	71.31307
407.753	37.58533
407.966	-46.70749
408.179	24.93896
408.392	58.66448
408.605	8.07845
408.819	-25.63794
409.032	41.80097
409.245	75.52945
409.458	31.26204
409.671	-8.78052
409.884	-6.67324
410.097	-8.78052
410.31	18.61609
410.523	-6.67324
410.736	46.01671
410.949	27.04663
411.162	-21.42373
411.375	-17.20943
411.588	33.36978
411.801	-50.9211
412.014	50.23254
412.227	75.52945
412.44	-0.35123
412.653	12.29343
412.865	58.66448
413.078	-31.95906
413.291	79.74592
413.504	-57.24133
413.717	-12.99502
413.93	52.34049
414.143	-0.35123
414.356	12.29343
414.568	-38.27997
414.781	35.47754
414.994	-8.78052
415.207	52.34049
415.42	-63.56133
415.632	-0.35123
415.845	52.34049
416.058	31.26204
416.271	-12.99502
416.483	64.98867
416.696	35.47754
416.909	-71.98763
417.121	8.07845
417.334	71.31307
417.547	8.07845
417.759	-74.09415
417.972	81.85419
418.185	24.93896
418.397	12.29343
418.61	79.74592
418.823	50.23254
419.035	41.80097
419.248	16.50851
419.46	20.72369
419.673	20.72369
419.885	8.07845
420.098	41.80097
420.311	-34.06606
420.523	-15.10224
420.736	-0.35123
420.948	27.04663
421.161	-2.45859
421.373	64.98867
421.586	-31.95906
421.798	8.07845
422.01	10.18593
422.223	62.88058
422.435	94.50427
422.648	24.93896
422.86	81.85419
423.073	-19.31659
423.285	3.86356
423.497	41.80097
423.71	33.36978
423.922	3.86356
424.134	8.07845
424.347	24.93896
424.559	79.74592
424.771	83.96248
424.984	12.29343
425.196	35.47754
425.408	-10.88778
425.621	41.80097
425.833	83.96248
426.045	39.69314
426.257	149.33043
426.47	12.29343
426.682	75.52945
426.894	8.07845
427.106	54.44846
427.318	94.50427
427.531	50.23254
427.743	37.58533
427.955	79.74592
428.167	60.77252
428.379	22.83131
428.591	8.07845
428.804	113.4809
429.016	79.74592
429.228	-25.63794
429.44	90.28749
429.652	52.34049
429.864	64.98867
430.076	16.50851
430.288	31.26204
430.5	10.18593
430.712	16.50851
430.924	50.23254
431.136	71.31307
431.348	50.23254
431.56	71.31307
431.772	71.31307
431.984	52.34049
432.196	-8.78052
432.408	46.01671
432.62	56.55646
432.832	33.36978
433.044	43.90883
433.256	18.61609
433.468	24.93896
433.679	115.58952
433.891	41.80097
434.103	92.39587
434.315	86.0708
434.527	71.31307
434.739	27.04663
434.95	14.40096
435.162	33.36978
435.374	35.47754
435.586	-12.99502
435.798	-17.20943
436.009	31.26204
436.221	29.15432
436.433	27.04663
436.645	81.85419
436.856	96.6127
437.068	100.82962
437.28	86.0708
437.491	64.98867
437.703	58.66448
437.915	67.09678
438.126	41.80097
438.338	41.80097
438.55	22.83131
438.761	100.82962
438.973	33.36978
439.184	94.50427
439.396	48.12461
439.608	12.29343
439.819	8.07845
440.031	-29.85205
440.242	31.26204
440.454	67.09678
440.665	37.58533
440.877	113.4809
441.088	88.17913
441.3	69.20492
441.511	50.23254
441.723	94.50427
441.934	27.04663
442.146	62.88058
442.357	109.26371
442.569	67.09678
442.78	58.66448
442.991	102.93811
443.203	69.20492
443.414	124.02423
443.626	46.01671
443.837	90.28749
444.048	12.29343
444.26	24.93896
444.471	60.77252
444.682	77.63768
444.894	52.34049
445.105	138.7858
445.316	29.15432
445.528	86.0708
445.739	54.44846
445.95	92.39587
446.161	98.72115
446.373	71.31307
446.584	130.35049
446.795	62.88058
447.006	132.45929
447.217	60.77252
447.429	67.09678
447.64	109.26371
447.851	96.6127
448.062	134.5681
448.273	75.52945
448.484	113.4809
448.695	-23.53085
448.907	79.74592
449.118	130.35049
449.329	83.96248
449.54	107.15516
449.751	121.91552
449.962	113.4809
450.173	180.96744
450.384	102.93811
450.595	143.00359
450.806	58.66448
451.017	134.5681
451.228	115.58952
451.439	155.65745
451.65	153.54842
451.861	145.11251
452.072	73.42125
452.283	208.38993
452.494	134.5681
452.705	100.82962
452.915	130.35049
453.126	119.80683
453.337	145.11251
453.548	180.96744
453.759	151.43941
453.97	229.48645
454.181	145.11251
454.391	208.38993
454.602	240.03545
454.813	180.96744
455.024	180.96744
455.235	244.25518
455.445	145.11251
455.656	121.91552
455.867	208.38993
456.078	105.04662
456.288	124.02423
456.499	180.96744
456.71	225.26699
456.921	214.71868
457.131	252.69488
457.342	113.4809
457.553	138.7858
457.763	159.87558
457.974	202.06136
458.184	206.28038
458.395	278.01581
458.606	161.98467
458.816	261.13489
459.027	218.93794
459.237	269.5752
459.448	278.01581
459.659	206.28038
459.869	170.42125
460.08	278.01581
460.29	328.66565
460.501	271.68532
460.711	297.00827
460.922	202.06136
461.132	284.34646
461.343	286.45672
461.553	286.45672
461.764	301.22902
461.974	288.56699
462.184	307.56028
462.395	328.66565
462.605	398.32572
462.816	332.88694
463.026	311.78121
463.236	404.65936
463.447	353.99443
463.657	305.44984
463.867	396.21454
464.078	461.6686
464.288	425.77255
464.498	446.88733
464.709	385.65888
464.919	413.10444
465.129	480.67419
465.339	470.11538
465.55	476.45062
465.76	455.33367
465.97	525.02522
466.18	480.67419
466.391	571.49488
466.601	446.88733
466.811	613.74564
467.021	607.4077
467.231	704.60147
467.441	567.2701
467.651	734.18699
467.862	577.83217
468.072	738.41367
468.282	721.50723
468.492	691.92262
468.702	839.86582
468.912	691.92262
469.122	744.75376
469.332	856.7766
469.542	848.32114
469.752	861.00439
469.962	899.05592
470.172	1089.34831
470.382	977.28082
470.592	1055.51491
470.802	1059.74401
471.012	1072.43144
471.222	1102.03617
471.432	1080.88983
471.642	1118.9536
471.852	1133.75658
472.062	1195.08542
472.272	1376.97168
472.482	1275.45168
472.691	1431.96284
472.901	1347.3613
473.111	1396.00703
473.321	1489.06922
473.531	1565.21044
473.741	1575.78549
473.95	1599.05046
474.16	1514.44976
474.37	1666.72896
474.58	1706.91182
474.79	1804.19157
474.999	1715.37123
475.209	1725.94542
475.419	1884.54634
475.628	1893.00432
475.838	1787.27394
476.048	2007.17816
476.258	1897.23328
476.467	2298.86101
476.677	2197.4238
476.886	2191.0833
477.096	2246.03171
477.306	2453.08757
477.515	2362.24833
477.725	2459.42446
477.935	2239.69181
478.144	2700.14882
478.354	2393.93863
478.563	2670.59473
478.773	2529.12363
478.982	2984.99784
479.192	2784.57493
479.401	2843.66031
479.611	2915.39201
479.82	2968.12518
480.03	3033.50132
480.239	3147.34675
480.449	3130.48368
480.658	3395.95342
480.868	3282.21353
481.077	3393.84759
481.287	3425.43322
481.496	3349.62105
481.705	3448.59347
481.915	3699.00355
482.124	3595.92545
482.333	3623.27713
482.543	3656.93636
482.752	3802.03557
482.961	3726.34312
483.171	3896.61526
483.38	3829.36272
483.589	4119.24105
483.799	4106.64578
484.008	4077.25389
484.217	4186.40308
484.426	4329.05021
484.636	4370.98634
484.845	4509.31366
485.054	4333.24422
485.263	4523.97912
485.472	4601.47851
485.682	4722.90246
485.891	4534.45379
486.1	4685.22725
486.309	4750.10778
486.518	4722.90246
486.727	4599.38433
486.936	4978.06258
487.146	4873.52987
487.355	4990.60264
487.564	5072.0928
487.773	5172.33999
487.982	5232.88002
488.191	5374.75887
488.4	5220.3561
488.609	5397.69968
488.818	5433.14807
489.027	5512.36107
489.236	5431.06306
489.445	5554.03847
489.654	5572.79022
489.863	5676.93186
490.072	5756.04006
490.281	5595.70644
490.49	5768.52771
490.698	5901.67648
490.907	5926.63111
491.116	6018.10239
491.325	6049.27535
491.534	6026.4157
491.743	6086.67592
491.952	6140.6855
492.16	6016.024
492.369	6279.79091
492.578	6223.74617
492.787	6275.64004
492.996	6389.75509
493.204	6377.30961
493.413	6742.03025
493.622	6789.6399
493.831	6607.41564
494.039	6729.60835
494.248	6766.87157
494.457	6913.78223
494.665	7027.50774
494.874	7004.76809
495.083	6820.68316
495.291	7041.97701
495.5	6963.4163
495.709	7091.5776
495.917	7006.83545
496.126	7238.23752
496.335	7300.17297
496.543	7155.62599
496.752	7349.7071
496.96	7463.17543
497.169	7273.33671
497.377	7184.54406
497.586	7300.17297
497.794	7630.16444
498.003	7648.71012
498.211	7634.28585
498.42	7465.23788
498.628	7665.19372
498.837	7834.07299
499.045	8017.21076
499.254	7869.06697
499.462	7729.05492
499.671	7914.34442
499.879	8286.48133
500.087	8089.18692
500.296	8267.99273
500.504	7965.78398
500.713	8134.41644
500.921	8208.40751
501.129	8292.64384
501.338	7980.18476
501.546	8383.00716
501.754	8329.61521
501.962	8292.64384
502.171	8304.96833
502.379	8616.95727
502.587	8467.17562
502.795	8610.80383
503.004	8331.66899
503.212	8739.9908
503.42	8698.98702
503.628	8670.27998
503.837	8711.28893
504.045	8596.44517
504.253	8742.0408
504.461	8844.51738
504.669	8774.83825
504.877	8987.90909
505.085	8969.47789
505.294	8977.66971
505.502	8920.32101
505.71	9249.88977
505.918	9211.01971
506.126	9407.35424
506.334	9104.60716
506.542	9470.72161
506.75	9311.25123
506.958	9450.28222
507.166	9116.8879
507.374	9341.92635
507.582	9290.79908
507.79	9454.37023
507.998	9474.80929
508.206	9435.97369
508.414	9435.97369
508.622	9507.50846
508.83	9452.32623
509.037	9726.08036
509.245	9552.46314
509.453	9730.16413
509.661	9732.20599
509.869	9813.86799
510.077	9515.68261
510.285	9862.85366
510.492	9799.57888
510.7	9909.79025
510.908	9511.59556
511.116	9789.37193
511.324	9730.16413
511.531	9897.54667
511.739	10015.87926
511.947	10123.9686
512.155	10044.43503
512.362	10060.75136
512.57	10113.77319
512.778	10266.66812
512.985	10223.86532
513.193	10223.86532
513.401	10009.7598
513.608	10311.50277
513.816	10207.55791
514.024	10299.27578
514.231	10305.38934
514.439	10486.70411
514.646	10517.25268
514.854	10749.33017
515.061	10217.75014
515.269	10781.88982
515.477	10549.83467
515.684	10443.93127
515.892	10421.52418
516.099	10688.27257
516.307	10625.16826
516.514	10517.25268
516.722	10686.23713
516.929	10694.37882
517.136	10667.91762
517.344	10794.09891
517.551	10682.16621
517.759	11113.42362
517.966	10867.34459
518.173	10991.42134
518.381	11046.32724
518.588	11003.62335
518.796	10873.44771
519.003	11367.4725
519.21	11113.42362
519.418	11377.63114
519.625	11133.75354
519.832	11534.04355
520.039	11483.26655
520.247	11450.76614
520.454	11664.00615
520.661	11594.96821
520.868	11339.02697
521.076	11765.51374
521.283	11623.39687
521.49	11720.85312
521.697	11733.03371
521.904	11655.88458
522.112	11509.67133
522.319	11968.46471
522.526	11816.25936
522.733	11978.61009
522.94	12045.56465
523.147	11972.52288
523.354	11830.46718
523.561	12122.65333
523.768	11755.36397
523.975	12317.35575
524.183	11996.87128
524.39	12159.16519
524.597	11942.08576
524.804	12183.50508
525.011	12284.90997
525.218	12252.46237
525.425	12343.71664
525.632	12248.40629
525.838	12382.24199
526.045	12355.88281
526.252	12159.16519
526.459	12586.99446
526.666	12611.31717
526.873	12653.87979
527.08	12554.5628
527.287	12544.42757
527.494	12473.47653
527.701	12931.48769
527.907	12722.78512
528.114	13111.77809
528.321	12840.31413
528.528	13087.47154
528.735	13158.36376
528.941	12957.82472
529.148	12795.73639
529.355	13022.65068
529.562	12773.4465
529.768	12963.90238
529.975	12836.26172
530.182	12789.65739
530.388	13233.30083
530.595	13217.09874
530.802	13040.88205
531.008	13634.21981
531.215	13184.6937
531.422	13364.93264
531.628	13626.12187
531.835	13324.43244
532.042	13383.1572
532.248	13456.05224
532.455	13472.25046
532.661	13575.50854
532.868	13692.92825
533.074	13599.80321
533.281	13646.36661
533.487	13877.13433
533.694	13721.26928
533.9	14134.17573
534.107	13711.14756
534.313	14109.88999
534.52	13792.1192
534.726	13937.85642
534.933	13911.54381
535.139	13950.00055
535.345	13966.19258
535.552	14130.12813
535.758	14316.30946
535.965	14196.91248
536.171	14188.81752
536.377	14097.747
536.584	14010.71983
536.79	14330.47478
536.996	14506.52303
537.203	14417.48856
537.409	14107.86616
537.615	14609.71889
537.821	14310.23858
538.028	14520.68735
538.234	14741.23894
538.44	14674.46773
538.646	14457.95911
538.853	14595.55493
539.059	14536.87508
539.265	14868.70887
539.471	14759.44911
539.677	14690.65478
539.883	14623.88279
540.09	14682.56126
540.296	14818.1259
540.502	14874.77881
540.708	14803.96259
540.914	15234.92285
541.12	15016.40936
541.326	15259.20214
541.532	15354.2963
541.738	15257.17886
541.944	14977.96698
542.15	15060.92148
542.356	15107.45677
542.562	15750.87161
542.768	15313.83063
542.974	15473.67096
543.18	15192.43415
543.386	15726.59062
543.592	15627.44465
543.798	15645.65498
544.004	15491.8808
544.21	15799.43404
544.415	15483.78753
544.621	15552.58064
544.827	15473.67096
545.033	16100.94158
545.239	15767.05902
545.445	15977.502
545.651	15880.37284
545.856	15979.52556
546.062	16009.87908
546.268	15997.73763
546.474	15999.7612
546.679	15593.04755
546.885	15688.14601
547.091	15864.18493
547.297	15742.77793
547.502	16135.34378
547.708	16258.79087
547.914	16090.82338
548.119	16321.52877
548.325	16333.67179
548.531	16386.29235
548.736	16627.15014
548.942	16100.94158
549.147	16398.43574
549.353	16608.93294
549.559	16521.89768
549.764	16289.1477
549.97	16465.22568
550.175	16357.95804
550.381	16481.41751
550.586	16430.81847
550.792	16819.45431
550.997	16418.67489
551.203	16635.24673
551.408	16823.50306
551.614	16617.02945
551.819	16659.53673
552.025	16924.72492
552.23	16695.97234
552.435	16898.40662
552.641	17163.63481
552.846	17216.2812
553.052	17165.65963
553.257	17546.37969
553.462	17230.45556
553.668	17449.16426
553.873	16908.52899
554.078	17163.63481
554.283	17232.48048
554.489	17475.49272
554.694	17485.61919
554.899	17254.7548
555.105	17216.2812
555.31	17226.40573
555.515	17356.00623
555.72	17382.33284
555.925	16977.36284
556.131	17250.7049
556.336	17534.22736
556.541	17937.34318
556.746	17434.98762
556.951	17544.35429
557.156	17408.65997
557.361	17635.50032
557.567	17953.55167
557.772	17611.19407
557.977	17619.2961
558.182	17874.5374
558.387	17890.74503
558.592	17872.51147
558.797	17621.32162
559.002	17957.60383
559.207	17898.84892
559.412	18050.80736
559.617	17858.33
559.822	17750.96152
560.027	17657.78147
560.232	17902.90089
560.437	17890.74503
560.642	18060.93864
560.847	17945.4474
561.051	18296.00973
561.256	17783.37364
561.461	18265.60982
561.666	18235.21074
561.871	18156.17702
562.076	18125.78092
562.281	18366.94614
562.485	18156.17702
562.69	18634.5197
562.895	18243.31708
563.1	18565.59282
563.305	18042.70241
563.509	18662.90266
563.714	18186.57394
563.919	18364.91932
564.123	18508.83287
564.328	18764.27668
564.533	18516.94125
564.737	18342.62457
564.942	18596.00118
565.147	18737.91849
565.351	18318.30354
565.556	18855.52175
565.761	18715.61592
565.965	18902.16124
566.17	18752.11128
566.374	18559.51125
566.579	18468.29189
566.784	18642.62904
566.988	18877.82733
567.193	19356.50141
567.397	19269.2684
567.602	18928.52363
567.806	18810.91204
568.011	18819.02276
568.215	19161.75912
568.42	19177.98619
568.624	18614.24662
568.828	18946.77491
569.033	18958.94261
569.237	19409.25066
569.442	19439.6842
569.646	19060.34579
569.85	19153.64567
570.055	19188.12825
570.259	19064.40213
570.463	19269.2684
570.668	19415.33729
570.872	19171.90101
571.076	19283.46861
571.281	19486.35076
571.485	19510.69941
571.689	19701.45125
571.893	19802.93006
572.098	20097.278
572.302	19760.30769
572.506	19595.92439
572.71	19395.04867
572.914	19577.66128
573.119	19821.19736
573.323	19478.23468
573.527	19445.77101
573.731	19733.92333
573.935	19664.92144
574.139	19756.24851
574.343	19575.63206
574.547	20058.70323
574.751	20036.37117
574.955	19758.27809
575.159	20034.34101
575.364	19823.22708
575.568	19595.92439
575.772	20044.49186
575.976	20036.37117
576.18	20154.12778
576.383	20466.86051
576.587	19963.28798
576.791	20156.15819
576.995	20322.66617
577.199	20468.89156
577.403	20273.9292
577.607	20470.92263
577.811	20635.45248
578.015	20241.43923
578.219	20208.95034
578.422	20046.52204
578.626	20282.05186
578.83	20202.8588
579.034	20373.43641
579.238	19882.09082
579.442	20277.99052
579.645	20117.58111
579.849	20426.24024
580.053	20600.91925
580.257	20564.35597
580.46	20769.53405
580.664	21135.30256
580.868	20397.80706
581.071	20655.7667
581.275	20468.89156
581.479	20649.67239
581.682	20700.45946
581.886	20667.95544
582.09	20566.38723
582.293	20921.9214
582.497	20651.70382
582.7	20749.2175
582.904	21336.53163
583.107	21171.88671
583.311	20826.42261
583.515	20867.05928
583.718	20980.85073
583.922	21064.1705
584.125	21159.69185
584.329	20915.82546
584.532	21287.74519
584.735	21232.86322
584.939	21184.08172
585.142	21222.70022
585.346	20911.76152
585.549	21275.54894
585.753	21009.30061
585.956	21466.64009
586.159	21539.83328
586.363	21478.8386
586.566	21537.80006
586.769	21617.09831
586.973	21759.44347
587.176	21562.19888
587.379	21543.89972
587.582	21545.93294
587.786	21739.10728
587.989	21871.29946
588.192	21104.81678
588.395	21478.8386
588.599	21511.36865
588.802	21716.73792
589.005	21484.93791
589.208	22093.0119
589.411	21539.83328
589.615	21826.55566
589.818	21726.90575
590.021	21922.14694
590.224	21987.2352
590.427	22109.28615
590.63	22103.18328
590.833	22288.31857
591.036	21932.31672
591.239	22243.55777
591.442	22111.32044
591.645	22192.6954
591.848	22048.25897
592.051	22227.28156
592.254	22064.53255
592.457	22103.18328
592.66	22050.29316
592.863	22538.60464
593.066	22054.36154
593.269	22518.25414
593.472	22583.37698
593.675	22676.99743
593.878	22129.62929
594.081	22408.36765
594.284	22410.40249
594.486	22491.79903
594.689	22347.32416
594.892	22119.45767
595.095	22361.56735
595.298	22274.07631
595.5	22298.49173
595.703	22807.26426
595.906	22475.51926
596.109	22709.5628
596.311	22961.9744
596.514	22504.009
596.717	22746.19991
596.92	22827.61973
597.122	22624.08061
597.325	22552.8502
597.528	22569.13105
597.73	23147.24496
597.933	22599.65826
598.136	23135.02848
598.338	22748.23534
598.541	22984.36828
598.743	23224.61875
598.946	23039.33679
599.148	23414.0005
599.351	23185.93127
599.554	23477.13381
599.756	23051.55234
599.959	23090.23571
600.161	22970.11758
600.363	23566.7475
600.566	23051.55234
600.768	23206.29296
600.971	23609.51976
601.173	23481.20703
601.376	24135.11351
601.578	23468.98741
601.78	23784.69618
601.983	23540.27011
602.185	23167.60603
602.388	23261.27113
602.59	23418.07353
602.792	23448.62162
602.995	23727.65957
603.197	23387.52613
603.399	23328.46985
603.601	23562.67402
603.804	23684.88365
604.006	23617.66701
604.208	23403.81799
604.41	23570.82099
604.613	24027.12715
604.815	24069.91326
605.017	24126.96333
605.219	23479.17042
605.421	23756.17759
605.623	23635.99849
605.826	24371.48775
606.028	24031.20196
606.23	23680.80982
606.432	23853.958
606.634	23970.08092
606.836	24212.54246
607.038	24330.73101
607.24	24367.41203
607.442	24082.13809
607.644	24241.06991
607.846	24124.92579
608.048	24287.93757
608.25	24067.8758
608.452	23992.49167
608.654	24110.66309
608.856	23756.17759
609.058	23974.15558
609.26	23776.54795
609.462	23794.88153
609.664	23798.95569
609.866	23817.28956
610.067	23456.7679
610.269	23809.14114
610.471	23866.18103
610.673	24071.95073
610.875	23774.5109
611.077	23882.47856
611.278	23662.47774
611.48	24169.75229
611.682	23996.56639
611.884	24379.63923
612.085	23833.58653
612.287	24253.29612
612.489	24082.13809
612.69	23921.18593
612.892	23878.40416
613.094	24184.01555
613.295	23902.85073
613.497	24310.35303
613.699	24416.32138
613.9	24285.89981
614.102	24245.1453
614.304	24169.75229
614.505	24063.80089
614.707	24495.80226
614.908	24175.8651
615.11	24359.26062
615.311	23652.29335
615.513	23821.36378
615.714	24614.01176
615.916	24186.05317
616.117	24245.1453
616.319	24279.78657
616.52	24167.7147
616.722	24603.82096
616.923	24320.54199
617.124	24887.14816
617.326	24214.58012
617.527	24548.79168
617.729	24181.97793
617.93	24061.76343
618.131	24397.9802
618.333	23670.6253
618.534	23949.70781
618.735	24287.93757
618.937	24226.80612
619.138	24010.828
619.339	23754.14057
619.54	24318.50419
619.742	24228.8438
619.943	23939.52136
620.144	23957.85702
620.345	24340.9201
620.546	24330.73101
620.748	24363.33632
620.949	24314.42861
621.15	24813.76399
621.351	24363.33632
621.552	24471.34619
621.753	24143.26374
621.954	24825.99447
622.155	24226.80612
622.356	24711.84666
622.558	24395.9423
622.759	24789.30328
622.96	24626.24081
623.161	24558.98215
623.362	24243.1076
623.563	24956.45823
623.764	24777.07306
623.965	24675.15791
624.166	24540.63935
624.366	24565.09646
624.567	24338.88227
624.768	24453.00438
624.969	24161.60192
625.17	24477.46017
625.371	24428.54896
625.572	24514.14456
625.773	24638.46996
625.973	24728.15303
626.174	24428.54896
626.375	24703.69354
626.576	24558.98215
626.777	24473.38418
626.977	23898.77627
627.178	24428.54896
627.379	24422.43516
627.58	24854.5326
627.78	24571.21079
627.981	24336.84445
628.182	24636.43176
628.382	24779.11142
628.583	24648.66097
628.784	24669.0432
628.984	24709.80838
629.185	25270.42488
629.386	24620.12628
629.586	25084.89273
629.787	24931.99555
629.987	25144.01638
630.188	24687.38741
630.388	24644.58456
630.589	24512.10652
630.79	24856.57105
630.99	25290.81412
631.191	25015.57775
631.391	24715.92324
631.591	24987.03705
631.792	24785.22653
631.992	25164.40428
632.193	24524.33481
632.393	24579.36327
632.594	24491.72623
632.794	24614.01176
632.994	24412.24555
633.195	24681.27265
633.395	24791.34166
633.595	24491.72623
633.796	24805.61038
633.996	25078.7766
634.196	24471.34619
634.397	25042.08023
634.597	24422.43516
634.797	24713.88495
634.997	24349.07141
635.198	24864.7249
635.398	24991.11427
635.598	24726.11472
635.798	25129.74499
635.998	24823.95605
636.199	24878.99421
636.399	25121.58995
636.599	25197.02538
636.799	25307.12567
636.999	24936.07264
637.199	25478.40508
637.399	25600.75636
637.599	25354.02214
637.799	25219.4527
637.999	25341.78817
638.199	25525.30555
638.399	25606.87412
638.599	25661.93469
638.799	25712.91798
638.999	25596.67787
639.199	25663.974
639.399	25557.93259
639.599	25639.50243
639.799	25458.0139
639.999	25521.2272
640.199	25091.00888
640.399	25117.51245
640.599	24067.8758
640.799	25170.52069
640.998	25023.73232
641.198	25117.51245
641.398	25023.73232
641.598	25476.36595
641.798	25366.25618
641.997	25262.26924
642.197	25294.892
642.397	25668.05263
642.597	25192.94771
642.796	25321.39839
642.996	25252.07474
643.196	25339.74918
643.395	25056.35095
643.595	25139.93883
643.795	25335.67121
643.994	25496.75731
644.194	25378.4903
644.394	25604.83486
644.593	25341.78817
644.793	25682.32786
644.992	25580.36398
645.192	25892.38863
645.392	25902.58626
645.591	25949.49596
645.791	25929.10032
645.99	26084.11167
646.19	25916.86302
646.389	25914.82348
646.589	25608.91337
646.788	25772.0601
646.987	25586.48167
647.187	26071.87356
647.386	25557.93259
647.586	25733.31163
647.785	25963.77301
647.984	25833.24329
648.184	25894.42816
648.383	25943.37725
648.582	25615.03115
648.782	25631.34531
648.981	25378.4903
649.18	25468.20946
649.38	25523.26637
649.579	25749.6267
649.778	25592.59939
649.977	25741.46915
650.177	25867.91451
650.376	26012.72358
650.575	25470.24858
650.774	26302.36844
650.973	26233.01371
651.173	25896.46768
651.372	25788.37545
651.571	25927.06077
651.77	25878.11203
651.969	26288.08937
652.168	25776.13893
652.367	25821.00652
652.566	25488.60074
652.765	25472.2877
652.964	25345.86615
653.163	25969.89177
653.362	25659.89539
653.561	25747.58731
653.76	25517.14886
653.959	25598.71712
654.158	25716.9967
654.357	25666.01331
654.556	25608.91337
654.755	26071.87356
654.954	25971.93137
655.153	26184.0586
655.352	25994.367
655.551	25808.76981
655.749	25898.50721
655.948	26137.14422
656.147	26212.61563
656.346	26341.12633
656.545	26216.69523
656.743	26441.08363
656.942	26216.69523
657.141	26249.33229
657.34	26279.92993
657.538	26202.41665
657.737	26477.8036
657.936	26585.92651
658.135	26332.96673
658.333	26194.2575
658.532	26139.18396
658.731	26088.19106
658.929	26220.77484
659.128	26020.88211
659.326	26147.34292
659.525	26330.92683
659.724	25973.97096
659.922	26020.88211
660.121	25951.53553
660.319	25871.99351
660.518	26080.03229
660.716	26190.17794
660.915	25976.01056
661.113	26373.76502
661.312	26322.76726
661.51	26441.08363
661.709	26230.97389
661.907	26720.57618
662.105	26437.00366
662.304	26461.48355
662.502	26192.21772
662.701	26292.16909
662.899	26065.75453
663.097	26304.40831
663.296	26000.48584
663.494	26147.34292
663.692	26143.26344
663.891	26347.24605
664.089	26159.58142
664.287	26685.89306
664.485	26137.14422
664.684	26388.04458
664.882	26075.95292
665.08	26428.84375
665.278	26402.32421
665.476	26332.96673
665.675	26237.09335
665.873	26798.10472
666.071	26412.524
666.269	26724.65658
666.467	26518.60418
666.665	26439.04364
666.863	26347.24605
667.061	26159.58142
667.259	26398.24431
667.457	26408.44408
667.655	26010.68395
667.853	26037.19925
668.051	25978.05015
668.249	25971.93137
668.447	25967.85218
668.645	26198.33707
668.843	26335.00663
669.041	26551.2451
669.239	26110.6278
669.437	26184.0586
669.635	26312.56783
669.833	26214.65543
670.031	25965.8126
670.229	26179.97906
670.426	26049.43718
670.624	26010.68395
670.822	25570.16786
671.02	26235.05353
671.218	26304.40831
671.415	26388.04458
671.613	25802.65148
671.811	26031.08031
672.009	26220.77484
672.206	26112.66751
672.404	25925.02121
672.602	25655.81678
672.799	25849.55909
672.997	26077.99261
673.195	25733.31163
673.392	25998.44622
673.59	26324.80715
673.788	26022.92175
673.985	25659.89539
674.183	25947.45638
674.38	25988.24817
674.578	25845.48013
674.775	25476.36595
674.973	25394.80258
675.17	25906.66533
675.368	25553.85418
675.565	25623.18821
675.763	25574.2463
675.96	25647.65959
676.158	25704.76057
676.355	25315.2815
676.553	26014.76321
676.75	25449.85749
676.947	25623.18821
677.145	25757.78427
677.342	25464.13123
677.539	25439.66202
677.737	25358.10014
677.934	26000.48584
678.131	25733.31163
678.329	25951.53553
678.526	25402.95877
678.723	25109.35746
678.92	25490.63988
679.118	25174.59831
679.315	25341.78817
679.512	25761.86307
679.709	25953.57511
679.906	25590.56015
680.104	25927.06077
680.301	26082.07198
680.498	25502.87475
680.695	25698.64254
680.892	25767.98128
681.089	25307.12567
681.286	25798.57261
681.483	25029.84827
681.68	25370.33421
681.877	25262.26924
682.075	25362.17816
682.272	25213.33613
682.469	25486.5616
682.665	25358.10014
682.862	25498.79645
683.059	25568.12865
683.256	25625.22748
683.453	25537.54063
683.65	25111.39621
683.847	25152.17152
684.044	24819.87922
684.241	24876.95573
684.438	25097.12506
684.635	24634.39357
684.831	25182.75358
685.028	24764.84292
685.225	24966.65111
685.422	25011.50048
685.619	25066.5444
685.815	24428.54896
686.012	24883.07118
686.209	24481.53618
686.405	25235.76365
686.602	24850.45569
686.799	25023.73232
686.996	24823.95605
687.192	24978.88265
687.389	25241.88029
687.586	25290.81412
687.782	24836.18661
687.979	24844.34036
688.175	24579.36327
688.372	24669.0432
688.568	24589.55393
688.765	24744.45955
688.962	24713.88495
689.158	24726.11472
689.355	24783.18816
689.551	24477.46017
689.748	24430.58689
689.944	24408.16972
690.14	24112.70061
690.337	24304.23969
690.533	24563.05835
690.73	24528.41093
690.926	24593.63021
691.123	24188.09079
691.319	24448.92845
691.515	24318.50419
691.712	24300.16415
691.908	24660.89028
692.104	24648.66097
692.301	24342.95792
692.497	24306.27747
692.693	24289.97532
692.889	24287.93757
693.086	24450.96641
693.282	24493.76424
693.478	24927.91847
693.674	24232.91916
693.87	24324.61759
694.067	24145.30131
694.263	24479.49817
694.459	24147.33887
694.655	24269.59788
694.851	24442.81457
695.047	24069.91326
695.243	24426.51102
695.439	24546.75359
695.635	24397.9802
695.831	24181.97793
696.027	23796.91861
696.224	23994.52903
696.42	24283.86206
696.615	24296.08861
696.811	24104.55054
697.007	24200.31658
697.203	23363.08873
697.399	23475.09721
697.595	23870.25539
697.791	23438.43885
697.987	23481.20703
698.183	23585.0783
698.379	23568.78424
698.575	24086.21306
698.77	23583.04153
698.966	23837.6608
699.162	23727.65957
699.358	23546.38023
699.554	23222.58254
699.749	23843.77223
699.945	23672.6622
700.141	23609.51976
700.337	23568.78424
700.532	23057.66016
700.728	23090.23571
700.924	23287.74294
701.119	23275.52511
701.315	23334.579
701.511	23346.79738
701.706	23894.70182
701.902	23422.14656
702.097	23774.5109
702.293	23817.28956
702.489	23562.67402
702.684	23589.15185
702.88	23507.68326
703.075	23253.12607
703.271	23253.12607
703.466	23505.64661
703.662	23715.43775
703.857	23709.32687
704.053	24234.95684
704.248	23603.40935
704.443	23902.85073
704.639	23316.25164
704.834	23619.70383
705.03	23471.02401
705.225	23521.93991
705.42	23448.62162
705.616	23758.21461
705.811	23145.20887
706.006	23625.8143
706.202	23120.77606
706.397	22835.76202
706.592	22656.64452
706.787	23332.54261
706.983	23104.48778
707.178	23244.98106
707.373	22705.49208
707.568	23037.30087
707.763	23399.74501
707.959	23428.25615
708.154	23336.61539
708.349	23110.59586
708.544	22689.20934
708.739	22817.44195
708.934	22882.58122
709.129	22727.88122
709.324	22721.77505
709.519	23012.87016
709.714	22982.33246
709.909	23206.29296
710.104	22788.94463
710.299	22845.93995
710.494	22768.58981
710.689	22951.7955
710.884	22964.01019
711.079	22970.11758
711.274	23047.48048
711.469	23143.17279
711.664	22870.36734
711.859	23067.83993
712.054	22536.56957
712.249	22687.17401
712.443	22430.75108
712.638	22799.12217
712.833	22892.75954
713.028	23086.16372
713.223	22660.71508
713.417	22656.64452
713.612	22385.98466
713.807	23104.48778
714.002	22544.70985
714.196	22548.78002
714.391	22664.78564
714.586	22900.90226
714.78	22371.74116
714.975	22701.42137
715.17	22017.74666
715.364	22514.18408
715.559	22687.17401
715.754	22355.4631
715.948	22371.74116
716.143	22133.69796
716.337	22506.04401
716.532	22780.80266
716.726	22738.05823
716.921	22770.62528
717.115	22217.10905
717.31	22359.53259
717.504	22375.81071
717.699	22595.58792
717.893	22255.76509
718.088	22265.93795
718.282	22817.44195
718.476	22685.13869
718.671	21975.03085
718.865	22027.91734
719.059	22113.35474
719.254	22107.25185
719.448	21757.40984
719.642	21838.75833
719.837	21682.16801
720.031	21657.7664
720.225	21572.36523
720.419	21855.02877
720.614	21755.3762
720.808	21962.82664
721.002	22027.91734
721.196	21863.16408
721.39	21659.79985
721.585	21655.73296
721.779	21578.46508
721.973	21826.55566
722.167	21499.16976
722.361	21972.99681
722.555	22082.84062
722.749	21928.2488
722.943	21545.93294
723.137	21639.46557
723.331	21387.3533
723.525	21495.1035
723.719	21454.44173
723.913	21806.21819
724.107	21070.26734
724.301	21564.23215
724.495	21367.02433
724.689	21243.02632
724.883	21484.93791
725.077	21501.2029
725.271	21739.10728
725.465	21940.45262
725.659	21814.35313
725.853	21698.43606
726.046	21470.70625
726.24	21434.11144
726.434	20974.75443
726.628	21362.95858
726.822	21143.43226
727.015	21720.80504
727.209	21045.8802
727.403	21354.82714
727.596	21348.7286
727.79	21364.99145
727.984	21491.03725
728.177	21678.10104
728.371	21171.88671
728.565	21037.75129
728.758	21033.68686
728.952	21224.73281
729.146	21037.75129
729.339	21100.75208
729.533	21088.55807
729.726	21228.79801
729.92	21273.51625
730.113	21415.81452
730.307	21220.66763
730.5	21452.40868
730.694	21210.50474
730.887	21415.81452
731.081	21448.3426
731.274	21159.69185
731.468	20548.10606
731.661	21194.24434
731.854	20728.90136
732.048	20751.24914
732.241	20582.63744
732.435	21114.97861
732.628	21060.10596
732.821	21017.42929
733.014	21047.91244
733.208	20928.01738
733.401	20641.5467
733.594	20412.02355
733.788	20698.42793
733.981	21078.39651
734.174	20982.88284
734.367	20802.0414
734.56	20925.98538
734.754	20779.69249
734.947	20911.76152
735.14	21049.94468
735.333	20895.50593
735.526	20982.88284
735.719	20753.28078
735.912	20617.17003
736.105	20789.85102
736.298	20980.85073
736.491	20635.45248
736.684	20795.94619
736.877	20781.72419
737.07	20659.8296
737.263	20702.491
737.456	20572.48102
737.649	20974.75443
737.842	21129.20533
738.035	21145.4647
738.228	20925.98538
738.421	20586.70003
738.614	20513.57588
738.807	20357.18965
739	20743.12262
739.192	20895.50593
739.385	20667.95544
739.578	20588.73134
739.771	20391.71434
739.964	19934.86821
740.156	20330.78923
740.349	20371.40555
740.542	20576.54358
740.735	20387.65255
740.927	20280.02119
741.12	20194.73679
741.313	20083.06606
741.505	20452.64322
741.698	20040.43151
741.891	20381.55989
742.083	20456.70528
742.276	20231.28634
742.468	20253.62285
742.661	20127.73283
742.854	20034.34101
743.046	19876.0013
743.239	19886.15052
743.431	20146.00618
743.624	20257.68408
743.816	20184.58438
744.009	20446.55017
744.201	20312.51243
744.393	19918.62871
744.586	19713.62816
744.778	19733.92333
744.971	19332.15655
745.163	19847.58406
745.355	19829.31627
745.548	19983.58832
745.74	19957.19796
745.932	19977.49817
746.125	19839.465
746.317	20042.46168
746.509	19906.44926
746.702	19904.41937
746.894	19802.93006
747.086	19831.34601
747.278	19537.07778
747.471	19811.04882
747.663	19989.6785
747.855	20192.7063
748.047	20016.06974
748.239	20099.30829
748.431	19646.65705
748.623	19871.94165
748.815	19559.3985
749.008	19900.35959
749.2	19873.97147
749.392	19809.01913
749.584	19494.46691
749.776	19725.80521
749.968	19285.49722
750.16	19654.77452
750.352	19786.69275
750.544	19800.90038
750.736	19916.59879
750.928	19977.49817
751.12	19109.02291
751.311	19137.41899
751.503	19593.89514
751.695	19699.42178
751.887	19723.77569
752.079	19867.88201
752.271	19443.74207
752.463	19488.37979
752.654	19332.15655
752.846	19212.46961
753.038	19180.0146
753.23	19334.18527
753.421	19131.33405
753.613	19042.09247
753.805	19516.78666
753.997	19472.14766
754.188	19388.96216
754.38	19535.04865
754.572	19240.8686
754.763	19376.78926
754.955	19194.21354
755.146	19537.07778
755.338	19281.43999
755.53	19151.61732
755.721	19291.5831
755.913	19514.75757
756.104	19054.26131
756.296	19236.81155
756.487	18843.35528
756.679	18877.82733
756.87	18366.94614
757.062	18727.7809
757.253	18819.02276
757.445	18756.16639
757.636	18719.6709
757.827	18920.41205
758.019	18997.47463
758.21	18944.74698
758.401	18812.93972
758.593	18879.85514
758.784	18991.39053
758.975	19098.88165
759.167	18973.13845
759.358	19072.51485
759.549	19360.55895
759.74	18855.52175
759.932	18551.40255
760.123	18433.83327
760.314	18516.94125
760.505	18581.8105
760.696	18701.42363
760.888	18431.80633
761.079	18275.74303
761.27	18160.2299
761.461	18212.91861
761.652	18322.357
761.843	18158.20346
762.034	18121.72817
762.225	17817.81247
762.416	18034.59751
762.607	17805.65747
762.798	17827.94172
762.989	18176.44155
763.18	17884.66714
763.371	17669.93499
763.562	17870.48553
763.753	17846.1746
763.944	17886.6931
764.135	17696.26802
764.326	17935.31714
764.517	17744.88434
764.708	17819.83831
764.899	17771.21899
765.089	18174.41508
765.28	18091.333
765.471	18115.64907
765.662	17752.98725
765.853	17631.44925
766.043	17181.85834
766.234	17341.83058
766.425	17390.43344
766.615	17700.31931
766.806	17376.25743
766.997	17252.72985
767.187	17183.88319
767.378	17513.97373
767.569	17076.57
767.759	17457.26527
767.95	17461.31579
768.141	17437.01284
768.331	17631.44925
768.522	17396.50892
768.712	17491.69511
768.903	17246.655
769.093	16888.28431
769.284	17025.95329
769.474	16955.09273
769.665	16876.13763
769.855	16955.09273
770.046	17441.0633
770.236	16920.67592
770.426	17054.29843
770.617	16631.19843
770.807	16710.14195
770.998	16641.3192
771.188	16914.60244
771.378	16463.20171
771.569	16619.05359
771.759	16262.83842
771.949	16376.17291
772.139	16568.45092
772.33	16434.86634
772.52	16380.22068
772.71	16738.48152
772.9	16341.76718
773.09	16277.00492
773.281	16582.61953
773.471	16853.86895
773.661	16604.8847
773.851	16489.51348
774.041	16098.91794
774.231	16208.19703
774.421	16285.1001
774.611	16017.9734
774.802	16351.88645
774.992	16220.33945
775.182	16238.5532
775.372	16165.69904
775.562	16540.11403
775.752	16155.58058
775.942	16086.7761
776.131	15813.5982
776.321	15603.16432
776.511	15767.05902
776.701	15783.2465
776.891	15748.84819
777.081	15724.56721
777.271	15647.67835
777.461	15700.28638
777.651	15645.65498
777.84	15469.62433
778.03	15518.184
778.22	15639.58486
778.41	16001.78477
778.599	15763.01216
778.789	15781.22306
778.979	15926.91353
779.169	15878.34935
779.358	15532.3473
779.548	15710.40338
779.738	15785.26994
779.927	15591.02419
780.117	15396.78541
780.307	15423.08828
780.496	15311.80735
780.686	15631.49138
780.875	15738.7311
781.065	15453.43785
781.254	15386.66894
781.444	15706.35657
781.633	15501.9974
781.823	15477.71758
782.012	15501.9974
782.202	15718.49699
782.391	15289.55128
782.581	15099.36368
782.77	15346.20316
782.96	15295.62111
783.149	14880.84873
783.338	15073.06113
783.528	14876.80212
783.717	15038.66544
783.906	14805.98592
784.096	14852.52236
784.285	14816.10257
784.474	15111.50331
784.663	14609.71889
784.853	14555.08618
785.042	14528.78123
785.231	14666.37418
785.42	14571.27373
785.61	14765.51915
785.799	14338.56921
785.988	14848.47573
786.177	14506.52303
786.366	14852.52236
786.555	14955.7108
786.744	14803.96259
786.933	14490.33514
787.122	14739.21559
787.312	14973.9204
787.501	14474.14717
787.69	14710.88851
787.879	14559.13307
788.068	14211.07857
788.257	14277.86029
788.445	14320.3567
788.634	14457.95911
788.823	14296.07313
789.012	14233.33937
789.201	14245.48153
789.39	14081.55622
789.579	14081.55622
789.768	14389.15882
789.957	14263.69464
790.145	14004.648
790.334	14051.19812
790.523	13707.09885
790.712	13739.48819
790.9	13956.07258
791.089	13862.96549
791.278	14194.88874
791.467	13802.24032
791.655	13840.69989
791.844	13682.8063
792.033	13520.84368
792.221	13824.50651
792.41	13743.53681
792.599	13407.45611
792.787	13711.14756
792.976	13757.70685
793.164	14051.19812
793.353	13810.33716
793.541	14071.43691
793.73	13796.16766
793.918	14170.60376
794.107	13452.00265
794.295	13684.8307
794.484	13583.60682
794.672	13658.51329
794.861	13532.99165
795.049	13611.95036
795.238	13261.65382
795.426	13761.75541
795.614	13290.00596
795.803	13449.97785
795.991	13401.38144
796.179	13389.23198
796.368	13486.4237
796.556	13492.49789
796.744	12974.0317
796.932	13567.4102
797.121	12988.21253
797.309	13294.05619
797.497	13322.40738
797.685	13368.98257
797.874	13302.15662
798.062	13198.87105
798.25	13119.88013
798.438	13379.10733
798.626	13186.71905
798.814	13259.62863
799.002	13235.32608
799.19	13172.54152
799.378	13105.70152
799.566	13081.3948
799.755	12998.34155
799.943	13014.54772
800.131	12972.00585
800.318	12941.61742
800.506	13002.39312
800.694	13117.85463
800.882	12907.17579
801.07	13008.47044
801.258	12884.88922
801.446	12799.78902
801.634	12495.77628
801.822	12763.31451
802.01	12605.23658
802.197	12974.0317
802.385	12757.23525
802.573	12720.75859
802.761	12860.57586
802.949	12988.21253
803.136	12678.2001
803.324	13287.98083
803.512	13142.16033
803.699	13095.5738
803.887	12781.55199
804.075	12998.34155
804.262	12576.85974
804.45	12767.36732
804.638	12503.88508
804.825	12678.2001
805.013	12471.44924
805.201	12886.9153
805.388	12769.39372
805.576	12895.01956
805.763	12779.52563
805.951	12820.05185
806.138	12897.04561
806.326	13281.90543
806.513	12856.52356
806.701	12761.2881
806.888	12676.17344
807.075	13227.22508
807.263	12645.77283
807.45	12783.57835
807.638	12848.41888
807.825	12923.38381
808.012	12595.10213
808.2	12967.95412
808.387	13010.4962
808.574	13085.44597
808.761	12913.25384
808.949	12844.36652
809.136	12949.72111
809.323	13140.13488
809.51	13290.00596
809.698	12998.34155
809.885	13095.5738
810.072	13316.3322
810.259	12866.65427
810.446	13259.62863
810.633	13042.90774
810.82	13111.77809
811.008	12933.51364
811.195	13296.08131
811.382	12763.31451
811.569	12927.43576
811.756	12868.6804
811.943	13036.83067
812.13	12824.10435
812.317	13042.90774
812.504	12828.15683
812.691	13075.31801
812.878	12937.56554
813.064	12949.72111
813.251	12714.67896
813.438	12880.83705
813.625	12716.70551
813.812	12998.34155
813.999	13200.89637
814.186	13225.19982
814.372	13063.1643
814.559	13022.65068
814.746	12690.35993
814.933	12965.92825
815.12	12690.35993
815.306	12783.57835
815.493	12779.52563
815.68	13048.98476
815.866	12779.52563
816.053	12899.07166
816.24	13059.11303
816.426	12907.17579
816.613	12432.92951
816.799	12769.39372
816.986	12556.58982
817.173	12732.91768
817.359	12625.50501
817.546	12668.06674
817.732	12341.68892
817.919	12487.66737
818.105	12625.50501
818.292	12882.86314
818.478	12453.20335
818.665	12558.61684
818.851	12479.55836
819.037	12552.53576
819.224	12307.21664
819.41	12319.38356
819.597	12570.77883
819.783	12649.82632
819.969	12499.8307
820.156	12536.31928
820.342	12781.55199
820.528	12965.92825
820.714	12688.33331
820.901	12621.45137
821.087	12317.35575
821.273	12700.49296
821.459	12390.35228
821.646	12690.35993
821.832	12540.37344
822.018	12392.37983
822.204	12366.02109
822.39	12734.94418
822.576	12520.10239
822.762	12694.41316
822.948	12252.46237
823.134	12426.84723
823.32	12343.71664
823.507	12317.35575
823.693	12073.96704
823.879	11982.66819
824.065	11911.64681
824.25	12045.56465
824.436	12043.53585
824.622	12092.22492
824.808	12019.18964
824.994	12082.08173
825.18	11629.48849
825.366	11739.12388
825.552	11540.13639
825.738	11753.33399
825.923	11481.23534
826.109	11771.6035
826.295	11743.18396
826.481	11718.82299
826.667	11935.99812
826.852	11879.17656
827.038	11913.67613
827.224	11956.28998
827.409	11702.58164
827.595	12051.65101
827.781	11808.14042
827.966	11838.58574
828.152	11594.96821
828.338	11631.51901
828.523	11440.60926
828.709	11562.4761
828.894	11564.50692
829.08	11607.15214
829.266	11052.4274
829.451	11684.30944
829.637	11515.76451
829.822	11320.73952
830.008	11379.66284
830.193	11314.64353
830.378	11202.86731
830.564	11395.91608
830.749	11164.24641
830.935	11253.67853
831.12	11286.19434
831.305	11560.44526
831.491	11239.45204
831.676	11408.1056
831.861	11147.98384
832.047	11428.42068
832.232	11312.61151
832.417	11503.57806
832.602	11068.69402
832.788	11058.52746
832.973	10779.85493
833.158	10938.54132
833.343	10659.7753
833.528	10893.79072
833.714	10663.84649
833.899	11003.62335
834.084	10568.16063
834.269	10920.23492
834.454	10627.20406
834.639	10680.13074
834.824	11030.05967
835.009	11180.5083
835.194	10755.43533
835.379	11302.45126
835.564	10802.23807
835.749	11229.28995
835.934	11058.52746
836.119	11119.52271
836.304	10794.09891
836.489	10867.34459
836.674	10637.38291
836.859	10686.23713
837.044	10617.0249
837.228	10785.95956
837.413	10724.90843
837.598	11084.95993
837.783	10763.57539
837.968	10775.78512
838.152	10425.59832
838.337	10380.77999
838.522	10199.40388
838.707	10331.88001
838.891	10244.24835
839.076	10437.8204
839.261	10093.3813
839.445	10464.3
839.63	10181.0565
839.815	10293.16211
839.999	10123.9686
840.184	10248.3248
840.368	10034.23687
840.553	10225.90368
840.737	10242.21011
840.922	10140.28054
841.106	10052.59331
841.291	10333.91766
841.475	9971.00023
841.66	10403.18994
841.844	10024.03834
842.029	10207.55791
842.213	9928.15462
842.397	10005.68009
842.582	9877.13953
842.766	10144.35839
842.951	9844.48504
843.135	9922.03329
843.319	9656.64694
843.504	9675.0281
843.688	9525.89994
843.872	9658.68935
844.056	9985.28068
844.241	9934.27581
844.425	9474.80929
844.609	9489.11568
844.793	9401.22109
844.977	9666.85885
845.161	9417.57584
845.346	9754.66546
845.53	9331.70173
845.714	9572.89455
845.898	9284.66311
846.082	9785.28904
846.266	9609.66713
846.45	9811.82674
846.634	9505.46488
846.818	9719.9546
847.002	9603.53872
847.186	9715.87068
847.37	9497.29041
847.554	9523.85651
847.738	9298.98014
847.922	9417.57584
848.106	9343.97123
848.29	9464.58996
848.473	9280.57238
848.657	9425.75282
848.841	9047.28886
849.025	9298.98014
849.209	9075.94971
849.392	9215.11158
849.576	9170.09726
849.76	9301.02536
849.944	9256.02659
850.127	9697.49228
850.311	9100.51345
850.495	9225.34096
850.678	9008.38654
850.862	9296.9349
851.046	8760.48994
851.229	8688.73492
851.413	8698.98702
851.596	9116.8879
851.78	8621.05946
851.964	8934.65949
852.147	8594.39386
852.331	8891.64144
852.514	8415.85724
852.698	8735.89076
852.881	8216.62715
853.065	8452.80768
853.248	8319.34602
853.431	8643.6202
853.615	8508.22172
853.798	8809.68044
853.982	8616.95727
854.165	8378.90055
854.348	8497.96091
854.532	8772.78855
854.715	8452.80768
854.898	8348.09853
855.081	8356.31283
855.265	8506.1696
855.448	8383.00716
855.631	8327.56141
855.814	8376.84722
855.997	8335.77649
856.181	7908.17081
856.364	8327.56141
856.547	8154.97211
856.73	8177.58104
856.913	7959.61191
857.096	8117.97047
857.279	7897.88105
857.462	7794.95496
857.645	7797.01399
857.828	8101.52321
858.011	7498.23419
858.194	7901.99701
858.377	7714.63642
858.56	8006.92642
858.743	8117.97047
858.926	7891.70694
859.109	7805.24991
859.292	7784.65949
859.475	7784.65949
859.658	8041.89109
859.841	7813.48549
860.023	7792.89591
860.206	7607.49515
860.389	7852.59996
860.572	7636.34652
860.755	7780.54116
860.937	7568.33305
861.12	7533.28672
861.303	7370.3426
861.486	7535.34844
861.668	7475.54982
861.851	7630.16444
862.034	7368.27915
862.216	7646.64957
862.399	7382.72286
862.581	7549.77988
862.764	7434.29881
862.947	7605.43418
863.129	7609.5561
863.312	7743.47239
863.494	7456.98794
863.677	7434.29881
863.859	7434.29881
864.042	7382.72286
864.224	7077.1121
864.406	7186.60947
864.589	6878.61687
864.771	7085.37824
864.954	7143.2312
865.136	7448.73765
865.318	7155.62599
865.501	7112.24072
865.683	7116.37307
865.865	7015.10463
866.048	6864.13512
866.23	6903.44016
866.412	6733.74907
866.594	6855.85933
866.777	6886.89166
866.959	7052.31153
867.141	6872.41054
867.323	7219.65302
867.505	6853.79032
867.687	7184.54406
867.869	6971.68738
868.052	7056.44518
868.234	6744.10048
868.416	7087.44471
868.598	7027.50774
868.78	7165.95437
868.962	6940.66897
869.144	7302.23715
869.326	7093.64402
869.508	7178.3477
869.69	6758.5915
869.872	6965.4841
870.054	6501.72674
870.236	6721.32662
870.417	6636.41777
870.599	6721.32662
870.781	6456.11684
870.963	6543.18054
871.145	6229.97421
871.327	6632.27488
871.508	6306.76933
871.69	6422.93895
871.872	6273.56456
872.054	6675.77058
872.235	6325.44439
872.417	6325.44439
872.599	6232.05017
872.78	6574.26481
872.962	6429.16026
873.144	6617.77406
873.325	6503.79965
873.507	6679.91249
873.689	6373.16093
873.87	6543.18054
874.052	6456.11684
874.233	6597.05664
874.415	6205.06079
874.596	6385.60669
874.778	6259.03559
874.959	6534.89052
875.141	6265.26243
875.322	6501.72674
875.503	6182.22053
875.685	6323.36947
875.866	6026.4157
876.048	6296.39349
876.229	6248.65705
876.41	6215.44179
876.592	6173.91428
876.773	6493.43487
876.954	6198.83191
877.136	6561.83173
877.317	6067.97659
877.498	6466.48372
877.679	6107.45072
877.86	6242.42965
878.042	6043.04118
878.223	6234.12612
878.404	6263.18684
878.585	5957.81963
878.766	6267.338
878.947	6348.26688
879.128	6074.20991
879.309	6472.70356
879.49	6132.37737
879.672	6381.45819
879.853	6265.26243
880.034	6259.03559
880.215	6348.26688
880.396	6522.4548
880.576	6317.1446
880.757	6597.05664
880.938	6290.1677
881.119	6431.23398
881.3	6132.37737
881.481	6565.97618
881.662	6134.45444
881.843	6483.0695
882.023	6385.60669
882.204	6447.82293
882.385	6153.147
882.566	6339.96812
882.747	6053.43135
882.927	6391.82926
883.108	6236.20203
883.289	6706.83272
883.469	6557.68718
883.65	6700.62071
883.831	6441.60225
884.011	6456.11684
884.192	6381.45819
884.373	6425.01274
884.553	6283.9417
884.734	6468.55702
884.914	6369.01215
885.095	6371.08655
885.275	6379.38391
885.456	6536.96306
885.636	6099.14108
885.817	6478.9232
885.997	6429.16026
886.178	6402.19974
886.358	6327.51927
886.538	6445.74939
886.719	6383.53245
886.899	6551.47019
887.08	6414.64354
887.26	6526.60013
887.44	6140.6855
887.621	6398.05161
887.801	6348.26688
887.981	6638.48917
888.161	6485.14262
888.342	6543.18054
888.522	6290.1677
888.702	6534.89052
888.882	6227.89822
889.062	6563.90397
889.242	6615.70242
889.423	6768.94153
889.603	6636.41777
889.783	6590.84097
889.963	6476.85001
890.143	6646.77458
890.323	6234.12612
890.503	6462.33704
890.683	6265.26243
890.863	6402.19974
891.043	6389.75509
891.223	6265.26243
891.403	6248.65705
891.583	6487.21572
891.763	6346.19222
891.943	6344.11755
892.122	5872.55844
892.302	6321.29454
892.482	6144.83943
892.662	6344.11755
892.842	6261.11123
893.022	6447.82293
893.201	6173.91428
893.381	6250.73281
893.561	6119.91447
893.741	6281.86632
893.92	6148.99326
894.1	6188.44998
894.28	5912.07465
894.459	6011.86716
894.639	5849.67675
894.819	6034.72863
894.998	5830.95323
895.178	6200.90823
895.357	5932.86924
895.537	5903.75616
895.716	5789.33858
895.896	6049.27535
896.075	5683.17848
896.255	5976.53019
896.434	5691.50698
896.614	6047.19732
896.793	5683.17848
896.973	5895.43729
897.152	5703.99903
897.331	5930.78989
897.511	5674.84961
897.69	5899.59677
897.87	5558.20569
898.049	5714.40841
898.228	5558.20569
898.407	5887.11804
898.587	5703.99903
898.766	5866.31826
898.945	5533.20094
899.124	5620.7027
899.304	5389.3579
899.483	5593.62327
899.662	5308.00584
899.841	5608.20499
900.02	5591.54007
900.199	5399.78507
900.378	5170.25205
900.557	5426.89296
900.737	5247.49019
900.916	5474.84335
901.095	5189.04264
901.274	5320.52386
901.453	5005.23167
901.632	5103.42579
901.811	4973.88237
901.989	5232.88002
902.168	5076.27083
902.347	5109.69176
902.526	4860.98209
902.705	5088.80438
902.884	4752.20034
903.063	4998.96222
903.242	4779.40154
903.42	4942.5279
903.599	4572.158
903.778	4706.15883
903.957	4475.78854
904.135	4754.29287
904.314	4482.07493
904.493	4691.50696
904.672	4444.35363
904.85	4634.98231
905.029	4523.97912
905.207	4530.26399
905.386	4383.56549
905.565	4547.02266
905.743	4287.10545
905.922	4337.43813
906.1	4052.05761
906.279	4314.37053
906.457	4161.21984
906.636	4410.81761
906.814	4108.74504
906.993	4049.95778
907.171	3993.25472
907.35	4148.62709
907.528	3699.00355
907.707	3869.29638
907.885	3810.44428
908.063	3787.31958
908.242	3290.64043
908.42	3818.85267
908.598	3625.38097
908.777	3707.41607
908.955	3614.86157
909.133	3900.81786
909.311	3564.3619
909.49	3781.01243
909.668	3252.71725
909.846	3576.98782
910.024	3286.42702
910.202	3473.85673
910.38	3288.53373
910.559	3589.61308
910.737	3572.77926
910.915	3699.00355
911.093	3610.65367
911.271	3715.82828
911.449	3633.79616
911.627	3808.34213
911.805	3688.48747
911.983	4026.85834
912.161	3783.11483
912.339	4016.35778
912.517	3766.29506
912.695	3881.90551
912.872	3732.65178
913.05	3978.55149
913.228	3692.69396
913.406	3919.72859
913.584	3650.62562
913.762	4062.55642
913.939	3900.81786
914.117	3886.1084
914.295	3831.46467
914.473	3986.95346
914.65	3968.04857
914.828	3896.61526
915.006	3585.40473
915.184	3978.55149
915.361	3619.06938
915.539	3854.58481
915.716	3633.79616
915.894	3884.00696
916.072	3528.58484
916.249	3726.34312
916.427	3623.27713
916.604	3654.8328
916.782	3558.04869
916.959	3701.10671
917.137	3446.48809
917.314	3446.48809
917.492	3246.39619
917.669	3526.48014
917.847	3286.42702
918.024	3497.01243
918.201	3387.52999
918.379	3560.15311
918.556	3231.64646
918.733	3391.74174
918.911	3115.72765
919.088	3459.12015
919.265	3229.53929
919.442	3429.64434
919.62	3088.32153
919.797	3347.51483
919.974	3183.17733
920.151	3341.19608
920.328	3037.71863
920.506	3128.37573
920.683	2987.10685
920.86	3286.42702
921.037	2999.76062
921.214	3159.99338
921.391	2932.26763
921.568	3109.4034
921.745	2930.15822
921.922	3122.05176
922.099	3130.48368
922.276	3240.07498
922.453	3027.17524
922.63	3138.91534
922.807	2615.70199
922.984	3111.5115
923.161	2641.03815
923.338	3022.95777
923.514	2729.70037
923.691	2923.82993
923.868	2803.56784
924.045	2932.26763
924.222	2746.58581
924.399	2847.88028
924.575	2501.66784
924.752	2757.13878
924.929	2552.35392
925.105	2628.37029
925.282	2182.62918
925.459	2666.37251
925.635	2368.58657
925.812	2499.55578
925.989	2402.38898
926.165	2516.45197
926.342	2201.65075
926.518	2584.02931
926.695	2336.89446
926.871	2594.58717
927.048	2222.78502
927.224	2522.78785
927.401	2117.10535
927.577	2383.37545
927.754	2017.7489
927.93	2231.23848
928.107	2112.87775
928.283	2324.21699
928.459	2047.34608
928.636	2085.39759
928.812	2011.40648
928.988	2222.78502
929.165	1893.00432
929.341	2112.87775
929.517	1840.14061
929.693	2055.80217
929.87	1850.7136
930.046	1990.26464
930.222	1778.81503
930.398	2083.28367
930.574	1683.64819
930.751	2108.65012
930.927	1808.42094
931.103	2045.23204
931.279	1605.39541
931.455	1869.74468
931.631	1556.75038
931.807	1797.84749
931.983	1615.9703
932.159	1844.36982
932.335	1541.94521
932.511	1757.66746
932.687	1525.02495
932.863	1719.60092
933.039	1522.90992
933.215	1556.75038
933.391	1463.68862
933.566	1499.64446
933.742	1535.60012
933.918	1592.70549
934.094	1402.35216
934.27	1518.67984
934.445	1123.183
934.621	1353.70636
934.797	1167.59277
934.973	1188.74091
935.148	973.05219
935.324	1271.22178
935.5	979.39514
935.675	1349.47632
935.851	863.11829
936.027	1228.92332
936.202	966.70931
936.378	964.59503
936.553	848.32114
936.729	886.37178
936.904	778.56913
937.08	869.46005
937.255	687.69643
937.431	801.81867
937.606	628.53462
937.782	738.41367
937.957	455.33367
938.133	582.05709
938.308	499.68099
938.483	569.38248
938.659	415.21575
938.834	624.30913
939.009	408.88187
939.185	400.43691
939.36	379.32569
939.535	508.12883
939.71	366.65975
939.886	351.8836
940.061	341.32972
940.236	423.66115
940.411	341.32972
940.586	332.88694
940.761	261.13489
940.937	328.66565
941.112	240.03545
941.287	256.91485
941.462	263.24494
941.637	360.32701
941.812	218.93794
941.987	271.68532
942.162	138.7858
942.337	242.1453
942.512	231.59621
942.687	273.79547
942.862	244.25518
943.037	227.37671
943.212	180.96744
943.386	180.96744
943.561	244.25518
943.736	197.84241
943.911	218.93794
944.086	155.65745
944.26	263.24494
944.435	261.13489
944.61	187.2954
944.785	297.00827
944.959	204.17086
945.134	170.42125
945.309	168.31207
945.483	206.28038
945.658	185.18606
945.833	278.01581
946.007	143.00359
946.182	143.00359
946.357	297.00827
946.531	212.60907
946.706	237.92561
946.88	193.62355
947.055	113.4809
947.229	195.73297
947.404	155.65745
947.578	161.98467
947.752	121.91552
947.927	218.93794
948.101	202.06136
948.276	187.2954
948.45	73.42125
948.624	193.62355
948.799	193.62355
948.973	204.17086
949.147	159.87558
949.321	153.54842
949.496	227.37671
949.67	299.11864
949.844	164.09378
950.018	221.0476
950.193	176.7489
950.367	193.62355
950.541	170.42125
950.715	176.7489
950.889	180.96744
951.063	271.68532
951.237	197.84241
951.411	172.53045
951.585	199.95188
951.759	235.81579
951.933	261.13489
952.107	235.81579
952.281	170.42125
952.455	172.53045
952.629	256.91485
952.803	231.59621
952.977	240.03545
953.151	214.71868
953.325	202.06136
953.499	286.45672
953.672	237.92561
953.846	140.89469
954.02	252.69488
954.194	214.71868
954.368	174.63967
954.541	210.49949
954.715	185.18606
954.889	210.49949
955.062	223.15728
955.236	278.01581
955.41	204.17086
955.583	195.73297
955.757	161.98467
955.93	305.44984
956.104	210.49949
956.278	204.17086
956.451	235.81579
956.625	261.13489
956.798	151.43941
956.972	280.12601
957.145	202.06136
957.319	202.06136
957.492	265.355
957.665	362.43791
957.839	199.95188
958.012	267.46509
958.185	271.68532
958.359	256.91485
958.532	199.95188
958.705	261.13489
958.879	320.22329
959.052	288.56699
959.225	164.09378
959.398	309.67074
959.572	212.60907
959.745	204.17086
959.918	265.355
960.091	284.34646
960.264	269.5752
960.438	204.17086
960.611	126.13296
960.784	275.90563
960.957	204.17086
961.13	157.7665
961.303	210.49949
961.476	218.93794
961.649	176.7489
961.822	288.56699
961.995	242.1453
962.168	242.1453
962.341	189.40476
962.514	244.25518
962.686	212.60907
962.859	216.8283
963.032	193.62355
963.205	235.81579
963.378	212.60907
963.551	240.03545
963.723	202.06136
963.896	252.69488
964.069	202.06136
964.242	155.65745
964.414	208.38993
964.587	153.54842
964.76	134.5681
964.932	172.53045
965.105	155.65745
965.278	263.24494
965.45	212.60907
965.623	83.96248
965.795	170.42125
965.968	183.07674
966.14	153.54842
966.313	161.98467
966.485	214.71868
966.658	153.54842
966.83	227.37671
967.003	202.06136
967.175	185.18606
967.348	92.39587
967.52	193.62355
967.692	193.62355
967.865	168.31207
968.037	231.59621
968.209	69.20492
968.382	210.49949
968.554	172.53045
968.726	130.35049
968.898	79.74592
969.071	199.95188
969.243	96.6127
969.415	143.00359
969.587	174.63967
969.759	113.4809
969.932	147.22146
970.104	109.26371
970.276	134.5681
970.448	168.31207
970.62	193.62355
970.792	164.09378
970.964	229.48645
971.136	155.65745
971.308	164.09378
971.48	187.2954
971.652	185.18606
971.824	147.22146
971.996	185.18606
972.168	126.13296
972.339	161.98467
972.511	75.52945
972.683	126.13296
972.855	109.26371
973.027	117.69816
973.199	134.5681
973.37	86.0708
973.542	166.20292
973.714	96.6127
973.886	83.96248
974.057	134.5681
974.229	119.80683
974.401	113.4809
974.572	176.7489
974.744	98.72115
974.915	94.50427
975.087	115.58952
975.259	153.54842
975.43	54.44846
975.602	138.7858
975.773	151.43941
975.945	138.7858
976.116	79.74592
976.288	143.00359
976.459	157.7665
976.63	134.5681
976.802	119.80683
976.973	92.39587
977.145	73.42125
977.316	147.22146
977.487	164.09378
977.659	107.15516
977.83	62.88058
978.001	-19.31659
978.172	136.67694
978.344	109.26371
978.515	64.98867
978.686	119.80683
978.857	64.98867
979.028	83.96248
979.2	113.4809
979.371	119.80683
979.542	73.42125
979.713	92.39587
979.884	88.17913
980.055	83.96248
980.226	58.66448
980.397	79.74592
980.568	134.5681
980.739	208.38993
980.91	170.42125
981.081	62.88058
981.252	121.91552
981.423	52.34049
981.594	113.4809
981.765	102.93811
981.936	111.37229
982.106	105.04662
982.277	126.13296
982.448	98.72115
982.619	90.28749
982.79	75.52945
982.96	73.42125
983.131	56.55646
983.302	67.09678
983.472	92.39587
983.643	113.4809
983.814	69.20492
983.984	16.50851
984.155	24.93896
984.326	52.34049
984.496	105.04662
984.667	24.93896
984.837	79.74592
985.008	77.63768
985.178	81.85419
985.349	94.50427
985.519	67.09678
985.69	67.09678
985.86	-4.56592
986.031	16.50851
986.201	60.77252
986.371	155.65745
986.542	29.15432
986.712	126.13296
986.882	75.52945
987.053	8.07845
987.223	16.50851
987.393	54.44846
987.563	35.47754
987.734	41.80097
987.904	3.86356
988.074	67.09678
988.244	1.75615
988.414	83.96248
988.585	69.20492
988.755	90.28749
988.925	37.58533
989.095	35.47754
989.265	12.29343
989.435	43.90883
989.605	3.86356
989.775	96.6127
989.945	31.26204
990.115	67.09678
990.285	5.97099
990.455	-25.63794
990.625	33.36978
990.795	50.23254
990.965	14.40096
991.134	24.93896
991.304	41.80097
991.474	18.61609
991.644	58.66448
991.814	71.31307
991.984	54.44846
992.153	-17.20943
992.323	73.42125
992.493	77.63768
992.662	1.75615
992.832	73.42125
993.002	27.04663
993.171	3.86356
993.341	29.15432
993.511	-12.99502
993.68	54.44846
993.85	88.17913
994.019	-31.95906
994.189	77.63768
994.358	75.52945
994.528	27.04663
994.697	16.50851
994.867	71.31307
995.036	79.74592
995.206	1.75615
995.375	50.23254
995.544	16.50851
995.714	27.04663
995.883	50.23254
996.052	100.82962
996.222	10.18593
996.391	58.66448
996.56	-25.63794
996.73	90.28749
996.899	54.44846
997.068	75.52945
997.237	58.66448
997.406	60.77252
997.576	48.12461
997.745	3.86356
997.914	43.90883
998.083	86.0708
998.252	-4.56592
998.421	48.12461
998.59	14.40096
998.759	41.80097
998.928	109.26371
999.097	-21.42373
999.266	58.66448
999.435	100.82962
999.604	18.61609
999.773	50.23254
999.942	54.44846
1000.111	102.93811
1000.28	43.90883
1000.448	33.36978
1000.617	31.26204
1000.786	71.31307
1000.955	41.80097
1001.124	8.07845
1001.292	35.47754
1001.461	29.15432
1001.63	3.86356
1001.798	18.61609
1001.967	92.39587
1002.136	18.61609
1002.304	48.12461
1002.473	-53.02787
1002.642	69.20492
1002.81	37.58533
1002.979	31.26204
1003.147	27.04663
1003.316	-10.88778
1003.484	41.80097
1003.653	-21.42373
1003.821	10.18593
1003.99	73.42125
1004.158	-17.20943
1004.327	-21.42373
1004.495	50.23254
1004.663	1.75615
1004.832	16.50851
1005	8.07845
1005.168	88.17913
1005.337	92.39587
1005.505	-34.06606
1005.673	18.61609
1005.842	-31.95906
1006.01	35.47754
1006.178	29.15432
1006.346	39.69314
1006.514	29.15432
1006.683	43.90883
1006.851	41.80097
1007.019	41.80097
1007.187	56.55646
1007.355	8.07845
1007.523	18.61609
1007.691	-29.85205
1007.859	29.15432
1008.027	39.69314
1008.195	-21.42373
1008.363	20.72369
1008.531	12.29343
1008.699	20.72369
1008.867	-21.42373
1009.035	-23.53085
1009.203	18.61609
1009.37	54.44846
1009.538	-21.42373
1009.706	67.09678
1009.874	-0.35123
1010.042	62.88058
1010.209	58.66448
1010.377	3.86356
1010.545	46.01671
1010.713	8.07845
1010.88	20.72369
1011.048	16.50851
1011.216	14.40096
1011.383	60.77252
1011.551	16.50851
1011.718	-12.99502
1011.886	-17.20943
1012.054	54.44846
1012.221	27.04663
1012.389	-8.78052
1012.556	10.18593
1012.724	88.17913
1012.891	37.58533
1013.058	24.93896
1013.226	33.36978
1013.393	43.90883
1013.561	-0.35123
1013.728	41.80097
1013.895	37.58533
1014.063	62.88058
1014.23	-12.99502
1014.397	1.75615
1014.565	3.86356
1014.732	-44.60065
1014.899	83.96248
1015.066	52.34049
1015.233	79.74592
1015.401	29.15432
1015.568	16.50851
1015.735	54.44846
1015.902	16.50851
1016.069	-46.70749
1016.236	46.01671
1016.403	-17.20943
1016.57	-10.88778
1016.737	29.15432
1016.904	8.07845
1017.071	-2.45859
1017.238	58.66448
1017.405	12.29343
1017.572	58.66448
1017.739	8.07845
1017.906	12.29343
1018.073	27.04663
1018.24	33.36978
1018.407	-6.67324
1018.573	1.75615
1018.74	-17.20943
1018.907	1.75615
1019.074	-6.67324
1019.241	-34.06606
1019.407	54.44846
1019.574	-38.27997
1019.741	8.07845
1019.907	35.47754
1020.074	22.83131
1020.241	50.23254
1020.407	-8.78052
1020.574	-84.62633
1020.74	37.58533
1020.907	-17.20943
1021.073	69.20492
1021.24	16.50851
1021.406	20.72369
1021.573	-57.24133
1021.739	3.86356
1021.906	100.82962
1022.072	-31.95906
1022.239	12.29343
1022.405	-50.9211
1022.571	-2.45859
1022.738	22.83131
1022.904	8.07845
1023.07	-42.49378
1023.237	-8.78052
1023.403	-19.31659
1023.569	-29.85205
1023.735	39.69314
1023.902	8.07845
1024.068	43.90883
1024.234	46.01671
1024.4	29.15432
1024.566	18.61609
1024.732	-8.78052
1024.898	41.80097
1025.065	-29.85205
1025.231	96.6127
1025.397	20.72369
1025.563	3.86356
1025.729	-17.20943
1025.895	16.50851
1026.061	20.72369
1026.227	71.31307
1026.392	-34.06606
1026.558	-25.63794
1026.724	60.77252
1026.89	8.07845
1027.056	-25.63794
1027.222	-6.67324
1027.388	-34.06606
1027.553	-12.99502
1027.719	-17.20943
1027.885	48.12461
1028.051	-21.42373
1028.216	-31.95906
1028.382	27.04663
1028.548	8.07845
1028.713	86.0708
1028.879	-74.09415
1029.045	50.23254
1029.21	31.26204
1029.376	77.63768
1029.541	-76.20064
1029.707	8.07845
1029.873	33.36978
1030.038	24.93896
1030.204	41.80097
1030.369	3.86356
1030.534	-25.63794
1030.7	-38.27997
1030.865	-17.20943
1031.031	-42.49378
1031.196	-36.17303
1031.361	3.86356
1031.527	-59.34802
1031.692	5.97099
1031.857	8.07845
1032.023	-0.35123
1032.188	20.72369
1032.353	-0.35123
1032.518	-34.06606
1032.684	-6.67324
1032.849	16.50851
1033.014	10.18593
1033.179	-31.95906
1033.344	-10.88778
1033.509	8.07845
1033.674	33.36978
1033.839	3.86356
1034.004	-40.38689
1034.17	37.58533
1034.335	-25.63794
1034.5	-53.02787
1034.664	3.86356
1034.829	-10.88778
1034.994	75.52945
1035.159	5.97099
1035.324	35.47754
1035.489	-82.51994
1035.654	-12.99502
1035.819	-0.35123
1035.984	-8.78052
1036.148	-25.63794
1036.313	29.15432
1036.478	-4.56592
1036.643	88.17913
1036.807	52.34049
1036.972	41.80097
1037.137	-8.78052
1037.301	-19.31659
1037.466	-82.51994
1037.631	20.72369
1037.795	-4.56592
1037.96	-17.20943
1038.124	-21.42373
1038.289	41.80097
1038.454	-31.95906
1038.618	39.69314
1038.783	16.50851
1038.947	24.93896
1039.111	-40.38689
1039.276	-27.74501
1039.44	-0.35123
1039.605	-17.20943
1039.769	8.07845
1039.933	14.40096
1040.098	8.07845
1040.262	1.75615
1040.426	-21.42373
1040.591	16.50851
1040.755	-29.85205
1040.919	-4.56592
1041.083	-76.20064
1041.248	46.01671
1041.412	-8.78052
1041.576	-8.78052
1041.74	-21.42373
1041.904	12.29343
1042.068	27.04663
1042.232	24.93896
1042.397	8.07845
1042.561	81.85419
1042.725	41.80097
1042.889	111.37229
1043.053	24.93896
1043.217	-0.35123
1043.381	1.75615
1043.544	75.52945
1043.708	-25.63794
1043.872	-25.63794
1044.036	43.90883
1044.2	-2.45859
1044.364	20.72369
1044.528	12.29343
1044.691	-12.99502
1044.855	-31.95906
1045.019	-17.20943
1045.183	8.07845
1045.346	18.61609
1045.51	1.75615
1045.674	71.31307
1045.837	-17.20943
1046.001	41.80097
1046.165	-4.56592
1046.328	27.04663
1046.492	-34.06606
1046.655	-59.34802
1046.819	27.04663
1046.983	-29.85205
1047.146	16.50851
1047.31	-40.38689
1047.473	-4.56592
1047.636	58.66448
1047.8	29.15432
1047.963	8.07845
1048.127	69.20492
1048.29	27.04663
