Data from Scatter_Coeff_Baseline_USB4F045381__42__0042.txt Node

Date: Thu Feb 13 19:29:56 EST 2025
User: mmckonesweet
Spectrometer: USB4F04538
Trigger mode: 4
Integration Time (sec): 2.400000E-3
Scans to average: 1
Electric dark correction enabled: true
Nonlinearity correction enabled: true
Boxcar width: 0
XAxis mode: Wavelengths
Number of Pixels in Spectrum: 3648
>>>>>Begin Spectral Data<<<<<
345.52	-53.02787
345.736	-53.02787
345.952	-53.02787
346.168	33.36978
346.384	18.61609
346.6	16.50851
346.816	-10.88778
347.032	-50.9211
347.248	27.04663
347.464	-31.95906
347.68	41.80097
347.896	-25.63794
348.112	5.97099
348.328	-27.74501
348.544	-15.10224
348.76	69.20492
348.975	1.75615
349.191	18.61609
349.407	1.75615
349.623	-53.02787
349.839	-44.60065
350.055	33.36978
350.27	-36.17303
350.486	-67.77453
350.702	-42.49378
350.918	98.72115
351.133	75.52945
351.349	1.75615
351.565	48.12461
351.781	-84.62633
351.996	-42.49378
352.212	29.15432
352.428	-15.10224
352.644	-44.60065
352.859	-42.49378
353.075	-31.95906
353.291	16.50851
353.506	-36.17303
353.722	48.12461
353.938	-17.20943
354.153	18.61609
354.369	-74.09415
354.584	-19.31659
354.8	-4.56592
355.016	-42.49378
355.231	69.20492
355.447	5.97099
355.662	-31.95906
355.878	75.52945
356.093	-6.67324
356.309	-10.88778
356.524	46.01671
356.74	41.80097
356.955	-55.13461
357.171	-4.56592
357.386	22.83131
357.602	33.36978
357.817	22.83131
358.033	-29.85205
358.248	-36.17303
358.464	39.69314
358.679	-76.20064
358.895	-27.74501
359.11	-6.67324
359.325	33.36978
359.541	12.29343
359.756	22.83131
359.972	-46.70749
360.187	3.86356
360.402	-10.88778
360.618	-29.85205
360.833	-8.78052
361.048	-8.78052
361.264	-12.99502
361.479	-21.42373
361.694	-31.95906
361.909	24.93896
362.125	50.23254
362.34	-2.45859
362.555	39.69314
362.77	-65.66794
362.986	-15.10224
363.201	41.80097
363.416	-31.95906
363.631	-8.78052
363.847	50.23254
364.062	33.36978
364.277	1.75615
364.492	-31.95906
364.707	-36.17303
364.922	37.58533
365.138	-71.98763
365.353	-48.81431
365.568	18.61609
365.783	62.88058
365.998	14.40096
366.213	5.97099
366.428	-10.88778
366.643	46.01671
366.858	3.86356
367.073	35.47754
367.288	-19.31659
367.503	5.97099
367.718	-44.60065
367.933	12.29343
368.148	-6.67324
368.363	-36.17303
368.578	-2.45859
368.793	48.12461
369.008	24.93896
369.223	24.93896
369.438	48.12461
369.653	46.01671
369.868	62.88058
370.083	-61.45468
370.298	33.36978
370.513	-19.31659
370.728	62.88058
370.943	27.04663
371.157	-78.3071
371.372	24.93896
371.587	-17.20943
371.802	12.29343
372.017	37.58533
372.232	-10.88778
372.446	-19.31659
372.661	31.26204
372.876	-6.67324
373.091	-40.38689
373.306	22.83131
373.52	-53.02787
373.735	18.61609
373.95	-44.60065
374.165	-6.67324
374.379	-57.24133
374.594	62.88058
374.809	35.47754
375.023	-19.31659
375.238	-44.60065
375.453	-10.88778
375.667	5.97099
375.882	-2.45859
376.097	22.83131
376.311	10.18593
376.526	67.09678
376.741	-65.66794
376.955	12.29343
377.17	-10.88778
377.384	-44.60065
377.599	-53.02787
377.813	-25.63794
378.028	-0.35123
378.242	-6.67324
378.457	10.18593
378.672	50.23254
378.886	-74.09415
379.101	12.29343
379.315	56.55646
379.53	-27.74501
379.744	3.86356
379.958	5.97099
380.173	52.34049
380.387	-6.67324
380.602	-34.06606
380.816	8.07845
381.031	-10.88778
381.245	100.82962
381.459	22.83131
381.674	52.34049
381.888	39.69314
382.103	5.97099
382.317	14.40096
382.531	14.40096
382.746	14.40096
382.96	-6.67324
383.174	-36.17303
383.388	-8.78052
383.603	22.83131
383.817	-55.13461
384.031	-44.60065
384.246	27.04663
384.46	-17.20943
384.674	24.93896
384.888	67.09678
385.103	-80.41353
385.317	64.98867
385.531	22.83131
385.745	27.04663
385.959	22.83131
386.174	-27.74501
386.388	35.47754
386.602	27.04663
386.816	-19.31659
387.03	-29.85205
387.244	-17.20943
387.458	31.26204
387.672	1.75615
387.887	33.36978
388.101	20.72369
388.315	-17.20943
388.529	-36.17303
388.743	-0.35123
388.957	22.83131
389.171	-23.53085
389.385	31.26204
389.599	14.40096
389.813	1.75615
390.027	-29.85205
390.241	83.96248
390.455	-2.45859
390.669	79.74592
390.883	18.61609
391.097	16.50851
391.311	-53.02787
391.525	16.50851
391.738	46.01671
391.952	10.18593
392.166	18.61609
392.38	-15.10224
392.594	39.69314
392.808	-19.31659
393.022	64.98867
393.236	14.40096
393.449	-34.06606
393.663	14.40096
393.877	43.90883
394.091	12.29343
394.305	35.47754
394.518	-53.02787
394.732	-15.10224
394.946	-23.53085
395.16	16.50851
395.373	33.36978
395.587	-36.17303
395.801	1.75615
396.015	12.29343
396.228	-6.67324
396.442	14.40096
396.656	-38.27997
396.869	-21.42373
397.083	33.36978
397.297	10.18593
397.51	10.18593
397.724	90.28749
397.938	5.97099
398.151	94.50427
398.365	-19.31659
398.578	10.18593
398.792	56.55646
399.005	5.97099
399.219	29.15432
399.433	-38.27997
399.646	31.26204
399.86	1.75615
400.073	-8.78052
400.287	43.90883
400.5	77.63768
400.714	-34.06606
400.927	-78.3071
401.141	92.39587
401.354	20.72369
401.567	8.07845
401.781	-8.78052
401.994	-40.38689
402.208	16.50851
402.421	-38.27997
402.635	-2.45859
402.848	1.75615
403.061	-0.35123
403.275	-19.31659
403.488	67.09678
403.701	-0.35123
403.915	-69.8811
404.128	39.69314
404.341	-2.45859
404.555	-65.66794
404.768	94.50427
404.981	-40.38689
405.195	48.12461
405.408	-15.10224
405.621	24.93896
405.834	-27.74501
406.048	35.47754
406.261	-23.53085
406.474	22.83131
406.687	20.72369
406.9	10.18593
407.114	12.29343
407.327	22.83131
407.54	-50.9211
407.753	-19.31659
407.966	16.50851
408.179	-15.10224
408.392	-17.20943
408.605	-19.31659
408.819	52.34049
409.032	98.72115
409.245	-12.99502
409.458	-48.81431
409.671	48.12461
409.884	31.26204
410.097	-19.31659
410.31	100.82962
410.523	16.50851
410.736	31.26204
410.949	14.40096
411.162	10.18593
411.375	-23.53085
411.588	-0.35123
411.801	-19.31659
412.014	39.69314
412.227	22.83131
412.44	-27.74501
412.653	43.90883
412.865	67.09678
413.078	22.83131
413.291	5.97099
413.504	-44.60065
413.717	22.83131
413.93	-61.45468
414.143	14.40096
414.356	16.50851
414.568	-17.20943
414.781	35.47754
414.994	58.66448
415.207	14.40096
415.42	-34.06606
415.632	29.15432
415.845	-10.88778
416.058	29.15432
416.271	-59.34802
416.483	48.12461
416.696	27.04663
416.909	-19.31659
417.121	-0.35123
417.334	-15.10224
417.547	52.34049
417.759	-53.02787
417.972	22.83131
418.185	29.15432
418.397	-44.60065
418.61	48.12461
418.823	-36.17303
419.035	5.97099
419.248	39.69314
419.46	-23.53085
419.673	-2.45859
419.885	39.69314
420.098	46.01671
420.311	-44.60065
420.523	10.18593
420.736	31.26204
420.948	-10.88778
421.161	14.40096
421.373	39.69314
421.586	48.12461
421.798	3.86356
422.01	71.31307
422.223	56.55646
422.435	14.40096
422.648	67.09678
422.86	-31.95906
423.073	64.98867
423.285	-61.45468
423.497	111.37229
423.71	31.26204
423.922	-44.60065
424.134	29.15432
424.347	56.55646
424.559	71.31307
424.771	83.96248
424.984	16.50851
425.196	-4.56592
425.408	43.90883
425.621	-36.17303
425.833	33.36978
426.045	90.28749
426.257	-4.56592
426.47	41.80097
426.682	-19.31659
426.894	-38.27997
427.106	39.69314
427.318	8.07845
427.531	31.26204
427.743	-27.74501
427.955	-19.31659
428.167	-10.88778
428.379	-19.31659
428.591	-15.10224
428.804	-31.95906
429.016	-53.02787
429.228	41.80097
429.44	48.12461
429.652	-25.63794
429.864	31.26204
430.076	-2.45859
430.288	5.97099
430.5	77.63768
430.712	117.69816
430.924	-29.85205
431.136	-19.31659
431.348	22.83131
431.56	-12.99502
431.772	-23.53085
431.984	-2.45859
432.196	-19.31659
432.408	10.18593
432.62	-71.98763
432.832	39.69314
433.044	52.34049
433.256	-2.45859
433.468	16.50851
433.679	39.69314
433.891	20.72369
434.103	-40.38689
434.315	27.04663
434.527	79.74592
434.739	67.09678
434.95	31.26204
435.162	41.80097
435.374	50.23254
435.586	41.80097
435.798	-2.45859
436.009	-19.31659
436.221	39.69314
436.433	52.34049
436.645	48.12461
436.856	31.26204
437.068	109.26371
437.28	64.98867
437.491	-25.63794
437.703	31.26204
437.915	37.58533
438.126	69.20492
438.338	24.93896
438.55	41.80097
438.761	10.18593
438.973	50.23254
439.184	1.75615
439.396	-2.45859
439.608	31.26204
439.819	54.44846
440.031	10.18593
440.242	37.58533
440.454	31.26204
440.665	48.12461
440.877	83.96248
441.088	18.61609
441.3	-31.95906
441.511	41.80097
441.723	-0.35123
441.934	37.58533
442.146	-19.31659
442.357	-19.31659
442.569	94.50427
442.78	8.07845
442.991	58.66448
443.203	14.40096
443.414	54.44846
443.626	22.83131
443.837	81.85419
444.048	22.83131
444.26	18.61609
444.471	77.63768
444.682	83.96248
444.894	69.20492
445.105	41.80097
445.316	64.98867
445.528	-0.35123
445.739	64.98867
445.95	98.72115
446.161	56.55646
446.373	50.23254
446.584	37.58533
446.795	14.40096
447.006	48.12461
447.217	48.12461
447.429	-2.45859
447.64	22.83131
447.851	81.85419
448.062	-10.88778
448.273	60.77252
448.484	8.07845
448.695	64.98867
448.907	67.09678
449.118	-42.49378
449.329	41.80097
449.54	48.12461
449.751	81.85419
449.962	98.72115
450.173	58.66448
450.384	79.74592
450.595	100.82962
450.806	39.69314
451.017	58.66448
451.228	-2.45859
451.439	98.72115
451.65	-17.20943
451.861	58.66448
452.072	115.58952
452.283	16.50851
452.494	39.69314
452.705	58.66448
452.915	92.39587
453.126	64.98867
453.337	41.80097
453.548	58.66448
453.759	81.85419
453.97	174.63967
454.181	117.69816
454.391	115.58952
454.602	107.15516
454.813	50.23254
455.024	115.58952
455.235	14.40096
455.445	39.69314
455.656	117.69816
455.867	48.12461
456.078	157.7665
456.288	92.39587
456.499	176.7489
456.71	27.04663
456.921	86.0708
457.131	100.82962
457.342	86.0708
457.553	79.74592
457.763	134.5681
457.974	33.36978
458.184	37.58533
458.395	149.33043
458.606	113.4809
458.816	109.26371
459.027	149.33043
459.237	157.7665
459.448	43.90883
459.659	115.58952
459.869	102.93811
460.08	81.85419
460.29	67.09678
460.501	117.69816
460.711	145.11251
460.922	77.63768
461.132	136.67694
461.343	109.26371
461.553	140.89469
461.764	117.69816
461.974	126.13296
462.184	149.33043
462.395	166.20292
462.605	113.4809
462.816	140.89469
463.026	96.6127
463.236	147.22146
463.447	210.49949
463.657	111.37229
463.867	128.24171
464.078	161.98467
464.288	204.17086
464.498	140.89469
464.709	185.18606
464.919	98.72115
465.129	178.85816
465.339	212.60907
465.55	176.7489
465.76	202.06136
465.97	170.42125
466.18	286.45672
466.391	199.95188
466.601	153.54842
466.811	235.81579
467.021	263.24494
467.231	282.23623
467.441	250.58493
467.651	339.219
467.862	183.07674
468.072	284.34646
468.282	229.48645
468.492	313.8917
468.702	303.33942
468.912	320.22329
469.122	313.8917
469.332	297.00827
469.542	337.1083
469.752	334.99761
469.962	351.8836
470.172	419.43842
470.382	356.10527
470.592	377.21465
470.802	398.32572
471.012	495.45715
471.222	432.10681
471.432	415.21575
471.642	565.15772
471.852	529.24946
472.062	487.00965
472.272	613.74564
472.482	554.59606
472.691	563.04536
472.901	582.05709
473.111	630.64738
473.321	546.14697
473.531	643.32419
473.741	554.59606
473.95	736.30033
474.16	662.34023
474.37	738.41367
474.58	710.94105
474.79	799.70503
474.999	734.18699
475.209	734.18699
475.419	822.95561
475.628	903.28403
475.838	706.71465
476.048	812.38703
476.258	875.80189
476.467	947.68104
476.677	960.36649
476.886	1222.57865
477.096	1184.51125
477.306	1239.49783
477.515	1053.40037
477.725	1224.69354
477.935	1146.44503
478.144	1214.11914
478.354	1199.31511
478.563	1417.15749
478.773	1264.87694
478.982	1482.72408
479.192	1489.06922
479.401	1406.58225
479.611	1396.00703
479.82	1508.10463
480.03	1438.30799
480.239	1628.66009
480.449	1548.29029
480.658	1818.99427
480.868	1833.79675
481.077	1793.61808
481.287	1618.08527
481.496	1878.2028
481.705	2085.39759
481.915	2036.77582
482.124	1797.84749
482.333	2049.46012
482.543	1975.46497
482.752	2146.69771
482.961	2123.4467
483.171	2165.72055
483.38	2114.99156
483.589	2288.29561
483.799	2339.00733
484.008	2423.51414
484.217	2305.20013
484.426	2491.10742
484.636	2609.36767
484.845	2670.59473
485.054	2368.58657
485.263	2655.81674
485.472	2537.57117
485.682	2765.58091
485.891	2592.47562
486.1	2727.58963
486.309	2837.33025
486.518	2940.70508
486.727	2902.73468
486.936	2909.06341
487.146	3025.06651
487.355	3056.69577
487.564	2930.15822
487.773	3092.53803
487.982	3090.42979
488.191	3227.4321
488.4	3185.28487
488.609	3263.25202
488.818	3324.34529
489.027	3315.91949
489.236	3419.11641
489.445	3600.13361
489.654	3345.4086
489.863	3747.37133
490.072	3709.51915
490.281	3604.34169
490.49	3595.92545
490.698	3722.13724
490.907	3631.69239
491.116	3726.34312
491.325	3848.27956
491.534	3951.24283
491.743	3923.93075
491.952	4028.9584
492.16	4112.94351
492.369	4001.65612
492.578	4037.3584
492.787	4326.95318
492.996	4054.15741
493.204	4106.64578
493.413	4188.50154
493.622	4444.35363
493.831	4188.50154
494.039	4324.85613
494.248	4310.17614
494.457	4599.38433
494.665	4496.7424
494.874	4561.68533
495.083	4515.59899
495.291	4578.44133
495.5	4593.10167
495.709	4762.66279
495.917	4488.36112
496.126	4678.94734
496.335	4766.84761
496.543	4789.86252
496.752	4681.04067
496.96	5013.5906
497.169	4888.1679
497.377	5115.95753
497.586	5136.8419
497.794	5280.88057
498.003	4990.60264
498.211	5207.83135
498.42	5044.93332
498.628	5130.57683
498.837	5097.15961
499.045	5401.87043
499.254	5360.1587
499.462	5345.55737
499.671	5366.41606
499.879	5672.76733
500.087	5585.29033
500.296	5495.68747
500.504	5683.17848
500.713	5676.93186
500.921	5529.03316
501.129	5641.53032
501.338	5522.7813
501.546	5868.39835
501.754	5495.68747
501.962	5558.20569
502.171	5639.44766
502.379	5968.21462
502.587	5631.1168
502.795	5930.78989
503.004	5676.93186
503.212	5932.86924
503.42	5599.87272
503.628	6032.65043
503.837	5882.95827
504.045	6192.60282
504.253	6134.45444
504.461	6298.4687
504.669	6097.06361
504.877	6221.67011
505.085	6246.58127
505.294	6234.12612
505.502	6207.13704
505.71	6491.36184
505.918	6163.53093
506.126	6536.96306
506.334	6094.98612
506.542	6520.3821
506.75	6420.86513
506.958	6648.84587
507.166	6472.70356
507.374	6744.10048
507.582	6449.89644
507.79	6636.41777
507.998	6839.30666
508.206	6764.80159
508.414	6748.24089
508.622	6837.23747
508.83	6715.11509
509.037	6797.9186
509.245	6597.05664
509.453	6847.58317
509.661	6810.33598
509.869	7021.30629
510.077	6715.11509
510.285	7116.37307
510.492	6986.1609
510.7	7013.03737
510.908	7025.44061
511.116	7048.17779
511.324	7064.71222
511.531	7165.95437
511.739	7033.70899
511.947	7260.94949
512.155	7234.10779
512.362	7314.62173
512.57	7060.57875
512.778	7327.00553
512.985	7322.87768
513.193	7508.5444
513.401	7555.96446
513.608	7357.96157
513.816	7349.7071
514.024	7555.96446
514.231	7446.67502
514.439	7564.21027
514.646	7327.00553
514.854	7671.37473
515.061	7302.23715
515.269	7574.51705
515.477	7726.9952
515.684	7448.73765
515.892	7652.83115
516.099	7562.14885
516.307	7689.91659
516.514	7916.40225
516.722	7652.83115
516.929	7934.92178
517.136	7533.28672
517.344	7846.42449
517.551	7739.35322
517.759	7996.64157
517.966	7998.69858
518.173	8033.66464
518.381	8023.38111
518.588	8097.4112
518.796	8078.90613
519.003	8105.63515
519.21	8004.86949
519.418	8154.97211
519.625	8191.96728
519.832	8255.66612
520.039	8290.58969
520.247	8378.90055
520.454	8309.07634
520.661	8465.12312
520.868	8259.77507
521.076	8616.95727
521.283	8270.0471
521.49	8475.38545
521.697	8709.23866
521.904	8694.88624
522.112	8582.08559
522.319	8905.98166
522.526	8477.43786
522.733	8959.23771
522.94	8713.33918
523.147	8705.13806
523.354	8575.9312
523.561	8922.36942
523.768	8676.4318
523.975	8713.33918
524.183	8778.93761
524.39	9188.5132
524.597	8795.33429
524.804	9082.09088
525.011	9170.09726
525.218	9188.5132
525.425	9258.07216
525.632	9231.47839
525.838	9247.84413
526.045	9090.27886
526.252	9270.34526
526.459	9317.38655
526.666	9309.20609
526.873	9495.24675
527.08	9587.1956
527.287	9603.53872
527.494	9145.54053
527.701	9570.85148
527.907	9446.19415
528.114	9777.12308
528.321	9482.98447
528.528	9768.95689
528.735	9711.7867
528.941	9681.15488
529.148	9466.63386
529.355	9713.8287
529.562	9746.49859
529.768	10030.1575
529.975	9711.7867
530.182	9693.40802
530.388	9846.52606
530.595	10176.97915
530.802	9938.35654
531.008	10054.63285
531.215	9881.22108
531.422	9968.96011
531.628	10009.7598
531.835	10205.51942
532.042	10162.708
532.248	10325.76698
532.455	9973.04034
532.661	10077.06679
532.868	10138.2416
533.074	10388.92925
533.281	10325.76698
533.487	10317.61608
533.694	10413.37576
533.9	10627.20406
534.107	10358.36844
534.313	10645.52577
534.52	10433.74643
534.726	10763.57539
534.933	10445.9682
535.139	10429.6724
535.345	10529.47131
535.552	10720.83797
535.758	10511.14319
535.965	10979.21893
536.171	10783.9247
536.377	10661.8109
536.584	10853.10355
536.79	10999.55606
536.996	10910.0643
537.203	10905.99598
537.409	10718.80272
537.615	11164.24641
537.821	10737.11951
538.028	11105.29135
538.234	10889.72221
538.44	11125.6217
538.646	11048.36064
538.853	11406.07404
539.059	11036.16009
539.265	11245.54917
539.471	11080.89352
539.677	11176.44289
539.883	11349.18631
540.09	11154.08239
540.296	11131.72059
540.502	11503.57806
540.708	11363.40897
540.914	11753.33399
541.12	11536.0745
541.326	11554.3527
541.532	11471.07918
541.738	11787.84247
541.944	11534.04355
542.15	11682.27915
542.356	11832.49683
542.562	11838.58574
542.768	11603.09086
542.974	12053.67978
543.18	11830.46718
543.386	12096.28214
543.592	11909.61748
543.798	12098.31074
544.004	11883.23545
544.21	12112.51072
544.415	11903.52944
544.621	12112.51072
544.827	11840.61536
545.033	12157.13682
545.239	12019.18964
545.445	12467.39465
545.651	12136.85268
545.856	12165.25026
546.062	12238.26596
546.268	11970.4938
546.474	12126.71033
546.679	12199.73108
546.885	12169.30694
547.091	12197.70286
547.297	12092.22492
547.502	12394.40738
547.708	12098.31074
547.914	12307.21664
548.119	12538.34636
548.325	12511.99379
548.531	12280.85412
548.736	12664.01336
548.942	12299.10522
549.147	12566.72486
549.353	12544.42757
549.559	12813.97306
549.764	12568.75185
549.97	12730.89118
550.175	12664.01336
550.381	12921.35782
550.586	12688.33331
550.792	12838.28792
550.997	12884.88922
551.203	12850.44506
551.408	12931.48769
551.614	12856.52356
551.819	12965.92825
552.025	13263.679
552.23	12884.88922
552.435	13336.58267
552.641	13213.04817
552.846	13144.18577
553.052	13103.67599
553.257	13618.02388
553.462	13219.12402
553.668	13423.65507
553.873	13415.55562
554.078	13498.57205
554.283	13537.04095
554.489	13684.8307
554.694	13686.85509
554.899	13482.37422
555.105	13452.00265
555.31	13316.3322
555.515	13415.55562
555.72	13296.08131
555.925	13622.07288
556.131	13761.75541
556.336	13707.09885
556.541	13624.09738
556.746	13530.967
556.951	13792.1192
557.156	13409.48099
557.361	13927.73623
557.567	13662.56216
557.772	13786.0465
557.977	13692.92825
558.182	14008.69589
558.387	13834.6274
558.592	13950.00055
558.797	13846.77236
559.002	13891.30303
559.207	13992.50428
559.412	14235.36307
559.617	14059.29366
559.822	14055.2459
560.027	13988.45635
560.232	13980.36047
560.437	13929.76028
560.642	14061.31754
560.847	13978.33649
561.051	14075.48464
561.256	13927.73623
561.461	14449.86505
561.666	14419.5121
561.871	14429.62979
562.076	14354.758
562.281	14512.59346
562.485	14306.19132
562.69	14300.12041
562.895	14372.97025
563.1	14354.758
563.305	14490.33514
563.509	14381.06455
563.714	14352.73441
563.919	14636.02323
564.123	14536.87508
564.328	14356.78159
564.533	14336.54561
564.737	14233.33937
564.942	14435.70038
565.147	14739.21559
565.351	14555.08618
565.556	14672.44434
565.761	14644.11684
565.965	14824.19587
566.17	14844.42909
566.374	14684.58464
566.579	14646.14024
566.784	14830.26585
566.988	14688.6314
567.193	14874.77881
567.397	14674.46773
567.602	14927.38469
567.806	14848.47573
568.011	15085.20077
568.215	14892.98857
568.42	15056.87493
568.624	14892.98857
568.828	14888.94196
569.033	14690.65478
569.237	15289.55128
569.442	15024.50248
569.646	15036.64216
569.85	15113.52658
570.055	15186.36433
570.259	15186.36433
570.463	15338.11002
570.668	15461.53108
570.872	15431.18149
571.076	15325.97032
571.281	15202.5505
571.485	15726.59062
571.689	15663.86537
571.893	15178.27125
572.098	15700.28638
572.302	15321.92375
572.506	15386.66894
572.71	15311.80735
572.914	15249.08576
573.119	15538.41729
573.323	15530.32397
573.527	15538.41729
573.731	15748.84819
573.935	15758.96531
574.139	16052.37454
574.343	15493.90412
574.547	16019.99699
574.751	15700.28638
574.955	15829.78587
575.159	15688.14601
575.364	15499.97408
575.568	15736.70768
575.772	15989.64336
575.976	15744.80135
576.18	15544.4873
576.383	16179.86496
576.587	15599.11761
576.791	15916.79593
576.995	16161.65165
577.199	16155.58058
577.403	15993.6905
577.607	16287.1239
577.811	16234.50569
578.015	16107.01252
578.219	16232.48194
578.422	16196.05467
578.626	16677.75444
578.83	16234.50569
579.034	16329.62411
579.238	16113.08348
579.442	16293.1953
579.645	16056.42176
579.849	16206.1733
580.053	16414.62704
580.257	16222.3632
580.46	16386.29235
580.664	16398.43574
580.868	16404.50747
581.071	16944.97006
581.275	16527.96978
581.479	16831.60057
581.682	16768.84586
581.886	16608.93294
582.09	16649.41586
582.293	16714.19043
582.497	16973.3137
582.7	16600.83647
582.904	16742.53007
583.107	16930.79843
583.311	16675.73024
583.515	16525.94574
583.718	16592.74003
583.922	16744.55434
584.125	16742.53007
584.329	16906.50451
584.532	16932.82294
584.735	17169.70929
584.939	17135.28755
585.142	17076.57
585.346	17038.10114
585.549	17194.00749
585.753	17046.19977
585.956	17232.48048
586.159	17222.35591
586.363	17317.52981
586.566	17665.8838
586.769	17406.63479
586.973	17291.20445
587.176	17426.88675
587.379	17173.75896
587.582	17495.74574
587.786	17364.10667
587.989	17493.72043
588.192	17347.90584
588.395	17483.59389
588.599	17473.46744
588.802	17864.40775
589.005	17817.81247
589.208	17959.62991
589.411	17503.84704
589.615	17499.79639
589.818	17811.73495
590.021	17842.12282
590.224	17937.34318
590.427	17848.20049
590.63	17838.07106
590.833	18058.91237
591.036	18296.00973
591.239	18018.38789
591.442	17520.04979
591.645	17862.38183
591.848	17718.55026
592.051	18093.35932
592.254	17985.96933
592.457	18156.17702
592.66	17734.75578
592.863	18312.22336
593.066	18350.7317
593.269	18048.78112
593.472	18152.12416
593.675	18492.61629
593.878	18133.88647
594.081	18166.30924
594.284	18253.45009
594.486	18693.31383
594.689	18496.67041
594.892	18164.28279
595.095	18166.30924
595.298	18626.41042
595.5	18411.5371
595.703	18563.56562
595.906	18231.15759
596.109	18628.43773
596.311	18364.91932
596.514	18859.57728
596.717	18529.10393
596.92	18490.58924
597.122	18186.57394
597.325	18851.46625
597.528	18912.30054
597.73	18735.89096
597.933	18709.53349
598.136	19273.32558
598.338	18942.71904
598.541	18889.99421
598.743	19106.99465
598.946	19074.54304
599.148	19086.71227
599.351	18656.82053
599.554	18814.96739
599.756	18930.55153
599.959	18837.27209
600.161	18752.11128
600.363	18997.47463
600.566	18616.27391
600.768	18604.11022
600.971	18806.85671
601.173	19027.89567
601.376	19072.51485
601.578	19129.30574
601.78	18948.80285
601.983	19137.41899
602.185	19180.0146
602.388	18975.16644
602.59	19263.18267
602.792	19216.52656
602.995	19549.25266
603.197	19025.86757
603.399	19350.41514
603.601	18802.8014
603.804	19218.55504
604.006	19082.65585
604.208	19127.27744
604.41	19027.89567
604.613	19216.52656
604.815	19212.46961
605.017	19295.64037
605.219	19407.22179
605.421	19466.06068
605.623	19356.50141
605.826	19346.35765
606.028	19188.12825
606.23	19376.78926
606.432	19512.72849
606.634	19658.83327
606.836	19492.43787
607.038	19569.54445
607.24	19405.19293
607.442	19593.89514
607.644	19648.68641
607.846	19553.31098
608.048	19490.40883
608.25	19811.04882
608.452	19591.86589
608.654	19963.28798
608.856	19510.69941
609.058	19715.65765
609.26	19624.33436
609.462	19642.59834
609.664	19508.67033
609.866	19614.18785
610.067	19419.39507
610.269	19462.00271
610.471	19482.29271
610.673	19662.89205
610.875	19760.30769
611.077	19794.81137
611.278	19502.58313
611.48	19859.76278
611.682	19348.38639
611.884	19772.48532
612.085	19559.3985
612.287	19559.3985
612.489	19604.04144
612.69	19581.71972
612.892	19421.42396
613.094	19882.09082
613.295	19585.77818
613.497	19735.95287
613.699	19429.53958
613.9	19545.19435
614.102	19733.92333
614.304	19567.51525
614.505	19583.74895
614.707	19715.65765
614.908	19731.89379
615.11	19955.16796
615.311	19681.15675
615.513	19693.3334
615.714	19717.68716
615.916	20083.06606
616.117	19802.93006
616.319	19768.42609
616.52	19782.63346
616.722	19888.18037
616.923	20204.88931
617.124	20462.79841
617.326	19995.76872
617.527	20137.88465
617.729	19888.18037
617.93	20273.9292
618.131	20030.2807
618.333	19809.01913
618.534	19867.88201
618.735	19841.49476
618.937	20164.27988
619.138	19886.15052
619.339	19979.52821
619.54	19922.68856
619.742	19910.50906
619.943	20083.06606
620.144	19993.73864
620.345	20076.9753
620.546	19760.30769
620.748	20249.56162
620.949	20178.49299
621.15	20371.40555
621.351	20265.80661
621.552	20385.62166
621.753	20206.91982
621.954	20446.55017
622.155	19904.41937
622.356	20180.52345
622.558	20560.29346
622.759	20401.86889
622.96	20012.0095
623.161	20306.42024
623.362	20026.2204
623.563	20210.98087
623.764	20028.25055
623.965	20249.56162
624.166	20099.30829
624.366	19900.35959
624.567	19926.74842
624.768	19821.19736
624.969	19993.73864
625.17	19963.28798
625.371	20210.98087
625.572	20032.31085
625.773	20292.20528
625.973	20186.61486
626.174	19788.7224
626.375	20269.8679
626.576	20347.03555
626.777	20227.22521
626.977	20231.28634
627.178	20485.14017
627.379	20009.97939
627.58	20018.09986
627.78	20257.68408
627.981	20176.46253
628.182	20672.01838
628.382	20513.57588
628.583	20409.99261
628.784	20743.12262
628.984	20296.26668
629.185	20757.34407
629.386	20312.51243
629.586	20527.79404
629.787	20631.38968
629.987	20659.8296
630.188	20460.76736
630.388	20511.54473
630.589	20290.17459
630.79	20349.06636
630.99	20016.06974
631.191	20233.31691
631.391	20507.48244
631.591	20385.62166
631.792	20275.95986
631.992	20919.88942
632.193	20867.05928
632.393	20895.50593
632.594	20550.13728
632.794	20627.3269
632.994	20824.39082
633.195	20779.69249
633.395	20781.72419
633.595	20351.09718
633.796	20743.12262
633.996	20836.58162
634.196	20873.15492
634.397	20974.75443
634.597	20389.68344
634.797	20893.474
634.997	20562.32471
635.198	20889.41015
635.398	20932.08138
635.598	21045.8802
635.798	20830.4862
635.998	20781.72419
636.199	20852.83626
636.399	21121.07575
636.599	20986.94706
636.799	21261.32017
636.999	20966.62609
637.199	21216.60246
637.399	20812.20017
637.599	20942.24147
637.799	20808.13665
637.999	21287.74519
638.199	20917.85744
638.399	21119.04337
638.599	20785.7876
638.799	21068.23505
638.999	21080.42881
639.199	21240.9937
639.399	21104.81678
639.599	21257.25484
639.799	20706.55409
639.999	20984.91495
640.199	20879.2506
640.399	21114.97861
640.599	20312.51243
640.799	21318.23644
640.998	21157.65939
641.198	21182.04921
641.398	21076.36421
641.598	21350.76144
641.798	21749.27533
641.997	21167.82174
642.197	20991.01131
642.397	21438.17747
642.597	21558.13238
642.796	21547.96617
642.996	21218.63504
643.196	21617.09831
643.395	21131.23774
643.595	21480.8717
643.795	21371.09009
643.994	21041.81574
644.194	21025.55804
644.394	21352.79429
644.593	21027.59024
644.793	21635.39876
644.992	21529.66725
645.192	21608.96488
645.392	21395.485
645.591	21773.67904
645.791	21527.63406
645.99	21397.51793
646.19	21411.74859
646.389	21428.01243
646.589	21757.40984
646.788	21045.8802
646.987	21005.23629
647.187	21610.99823
647.386	21444.27654
647.586	21674.03408
647.785	21462.57395
647.984	21696.40254
648.184	21743.17449
648.383	21783.84742
648.582	21192.21181
648.782	21389.38622
648.981	21393.45206
649.18	21263.35284
649.38	21574.39851
649.579	21751.30895
649.778	21928.2488
649.977	21728.93933
650.177	21497.13663
650.376	21836.72454
650.575	21401.58381
650.774	21881.46876
650.973	21564.23215
651.173	21966.8947
651.372	22117.42336
651.571	22213.04007
651.77	21881.46876
651.969	21745.2081
652.168	21836.72454
652.367	21920.11299
652.566	21450.37564
652.765	22202.86769
652.964	21950.62257
653.163	22095.04617
653.362	21968.92873
653.561	21688.2685
653.76	22137.76665
653.959	21739.10728
654.158	21584.56497
654.357	22149.9728
654.556	21564.23215
654.755	21566.26541
654.954	21846.89352
655.153	21724.87218
655.352	21610.99823
655.551	21531.70045
655.749	21954.69058
655.948	21954.69058
656.147	21511.36865
656.346	21645.56581
656.545	22145.90407
656.743	21661.8333
656.942	21867.23176
657.141	21879.43489
657.34	21834.69076
657.538	22013.67841
657.737	21850.96114
657.936	22310.69964
658.135	22034.01979
658.333	21706.57018
658.532	21558.13238
658.731	22070.63521
658.929	21798.08331
659.128	21816.38688
659.326	22208.97111
659.525	22206.93663
659.724	21869.26561
659.922	22412.43733
660.121	21863.16408
660.319	21822.48814
660.518	21509.33549
660.716	22007.57608
660.915	21824.5219
661.113	22019.78079
661.312	21818.42063
661.51	22015.71253
661.709	21916.04511
661.907	22082.84062
662.105	21596.76486
662.304	21895.70595
662.502	21875.36717
662.701	22062.49834
662.899	21873.33331
663.097	21844.85972
663.296	21749.27533
663.494	22042.15644
663.692	21897.73985
663.891	22141.83535
664.089	21517.46815
664.287	21885.53651
664.485	21834.69076
664.684	22628.15105
664.882	22168.28229
665.08	22225.24705
665.278	22416.50703
665.476	22630.18627
665.675	22160.1447
665.873	22652.57398
666.071	22194.72985
666.269	22204.90216
666.467	22223.21255
666.665	22506.04401
666.863	22442.96041
667.061	22516.21911
667.259	22270.00712
667.457	22229.31608
667.655	22062.49834
667.853	22137.76665
668.051	22003.50787
668.249	22339.18527
668.447	22184.55764
668.645	21948.58857
668.843	21966.8947
669.041	21755.3762
669.239	21657.7664
669.437	21930.28276
669.635	22255.76509
669.833	22184.55764
670.031	21615.06495
670.229	21777.74638
670.426	22003.50787
670.624	21733.0065
670.822	21696.40254
671.02	21995.3715
671.218	21936.38466
671.415	22152.00718
671.613	21783.84742
671.811	21989.26927
672.009	22261.86879
672.206	21985.20113
672.404	21966.8947
672.602	22272.04171
672.799	22375.81071
672.997	22219.14355
673.195	22306.63032
673.392	21787.9148
673.59	22048.25897
673.788	21958.7586
673.985	21659.79985
674.183	21942.4866
674.38	21989.26927
674.578	21934.35069
674.775	21855.02877
674.973	21610.99823
675.17	21637.43216
675.368	21582.53167
675.565	21631.33196
675.763	21893.67205
675.96	21789.94849
676.158	21653.69952
676.355	21391.41914
676.553	22080.80638
676.75	21590.6649
676.947	21558.13238
677.145	21651.66609
677.342	21690.302
677.539	21686.235
677.737	21629.29857
677.934	21499.16976
678.131	21702.50311
678.329	21879.43489
678.526	21645.56581
678.723	21739.10728
678.92	21977.0649
679.118	22135.7323
679.315	22013.67841
679.512	22072.66944
679.709	21944.52059
679.906	21371.09009
680.104	21765.54441
680.301	21802.15074
680.498	21637.43216
680.695	21501.2029
680.892	21970.96277
681.089	21934.35069
681.286	22290.3532
681.483	21509.33549
681.68	21700.46958
681.877	21566.26541
682.075	21432.07843
682.272	21314.17089
682.469	21336.53163
682.665	21525.60087
682.862	21643.53239
683.059	21344.66293
683.256	21899.77375
683.453	21472.73933
683.65	21594.73153
683.847	21297.90884
684.044	21582.53167
684.241	21301.97433
684.438	21783.84742
684.635	21163.75679
684.831	21316.20366
685.028	21039.78351
685.225	21464.60702
685.422	21086.52575
685.619	21543.89972
685.815	21165.78926
686.012	21037.75129
686.209	20672.01838
686.405	21129.20533
686.602	21186.11424
686.799	21194.24434
686.996	21064.1705
687.192	20609.0446
687.389	21076.36421
687.586	20791.88274
687.782	20779.69249
687.979	21301.97433
688.175	20676.08134
688.372	21015.39711
688.568	20749.2175
688.765	20611.07595
688.962	20814.23193
689.158	21340.59727
689.355	21247.0916
689.551	20647.64096
689.748	20424.20928
689.944	20891.44207
690.14	21001.17199
690.337	20832.51801
690.533	20958.49782
690.73	20797.97793
690.926	20867.05928
691.123	21043.84797
691.319	21131.23774
691.515	21171.88671
691.712	20395.77615
691.908	20844.70891
692.104	20501.38905
692.301	20438.42615
692.497	20349.06636
692.693	20414.05449
692.889	20590.76265
693.086	20347.03555
693.282	20308.45097
693.478	20582.63744
693.674	20580.60615
693.87	21094.65506
694.067	20720.77502
694.263	20542.01241
694.459	20568.41849
694.655	20537.95
694.851	20324.69692
695.047	20369.37469
695.243	20135.85428
695.439	20377.49814
695.635	20334.85078
695.831	20769.53405
696.027	20426.24024
696.224	20452.64322
696.42	20497.3268
696.615	20958.49782
696.811	20609.0446
697.007	20655.7667
697.203	20162.24945
697.399	20604.98192
697.595	20409.99261
697.791	20158.18861
697.987	20168.34075
698.183	20663.89251
698.379	20418.11639
698.575	20401.86889
698.77	20146.00618
698.966	20361.25131
699.162	19900.35959
699.358	20466.86051
699.554	20665.92397
699.749	20468.89156
699.945	20259.71471
700.141	20072.91481
700.337	20357.18965
700.532	20213.0114
700.728	19811.04882
700.924	19926.74842
701.119	19804.95975
701.315	19843.52452
701.511	20215.04193
701.706	20560.29346
701.902	20060.73345
702.097	19806.98943
702.293	19752.18935
702.489	20152.09738
702.684	20265.80661
702.88	20442.48815
703.075	20054.64282
703.271	20178.49299
703.466	20133.82391
703.662	20168.34075
703.857	20300.32809
704.053	20219.10301
704.248	20107.4295
704.443	19957.19796
704.639	19752.18935
704.834	19861.79258
705.03	19869.91182
705.225	20058.70323
705.42	19790.75205
705.616	20277.99052
705.811	19780.60383
706.006	19983.58832
706.202	19760.30769
706.397	19809.01913
706.592	19616.21714
706.787	19409.25066
706.983	19212.46961
707.178	19882.09082
707.373	19366.64528
707.568	19687.24505
707.763	19841.49476
707.959	19924.71849
708.154	20040.43151
708.349	20018.09986
708.544	19762.33728
708.739	19482.29271
708.934	19496.49596
709.129	19474.17666
709.324	19289.55447
709.519	19707.53969
709.714	19352.4439
709.909	19697.39232
710.104	19285.49722
710.299	19606.07072
710.494	19656.80389
710.689	19737.98242
710.884	19618.24644
711.079	19922.68856
711.274	19315.92697
711.469	19567.51525
711.664	19301.72631
711.859	19638.53965
712.054	19547.2235
712.249	19277.38278
712.443	19210.44114
712.638	19961.25796
712.833	19557.36932
713.028	19880.06098
713.223	19681.15675
713.417	19973.43809
713.612	19539.10692
713.807	19967.34801
714.002	19652.74514
714.196	19819.16765
714.391	19735.95287
714.586	19443.74207
714.78	19526.93217
714.975	19068.45848
715.17	19137.41899
715.364	19585.77818
715.559	19563.45687
715.754	19425.48176
715.948	19236.81155
716.143	19222.61201
716.337	18883.91076
716.532	19348.38639
716.726	19646.65705
716.921	19427.51067
717.115	19202.3273
717.31	19293.61173
717.504	18883.91076
717.699	19088.74049
717.893	18470.31891
718.088	18932.57944
718.282	18835.24437
718.476	18701.42363
718.671	18346.67812
718.865	18746.02863
719.059	18847.41075
719.254	18889.99421
719.448	18816.99507
719.642	18719.6709
719.837	18581.8105
720.031	18790.63554
720.225	18322.357
720.419	18644.65638
720.614	18508.83287
720.808	18626.41042
721.002	18358.83889
721.196	18869.71616
721.39	18596.00118
721.585	18666.95743
721.779	18539.23961
721.973	18821.05045
722.167	18399.37575
722.361	18547.34822
722.555	18853.494
722.749	18551.40255
722.943	18523.02257
723.137	18504.7787
723.331	18510.85996
723.525	18764.27668
723.719	18314.25008
723.913	18739.94602
724.107	18318.30354
724.301	18520.99546
724.495	18210.89208
724.689	18764.27668
724.883	18543.2939
725.077	18366.94614
725.271	18383.16082
725.465	18135.91286
725.659	18202.78597
725.853	18373.02662
726.046	18178.46802
726.24	18168.33569
726.434	17767.16747
726.628	18162.25634
726.822	17856.30409
727.015	18081.20145
727.209	17870.48553
727.403	18237.23732
727.596	17992.04774
727.79	18269.66309
727.984	18332.49074
728.177	18245.34367
728.371	17945.4474
728.565	17755.01299
728.758	18164.28279
728.952	18133.88647
729.146	18492.61629
729.339	18506.80578
729.533	18571.67442
729.726	18441.94108
729.92	17983.9432
730.113	18671.01222
730.307	18160.2299
730.5	18105.51731
730.694	17799.58002
730.887	17943.42134
731.081	18160.2299
731.274	18218.99824
731.468	18322.357
731.661	18174.41508
731.854	18208.86554
732.048	18389.24139
732.241	18194.67993
732.435	18184.54746
732.628	18022.44027
732.821	18328.43723
733.014	18198.73294
733.208	17927.21299
733.401	18109.57
733.594	17682.08863
733.788	18028.51888
733.981	18054.85986
734.174	18107.54366
734.367	17840.09694
734.56	18204.81249
734.754	18223.05134
734.947	18561.53843
735.14	18318.30354
735.333	18020.41408
735.526	18352.75849
735.719	18227.10446
735.912	18012.30934
736.105	18182.52097
736.298	17716.52459
736.491	17550.43049
736.684	17578.78647
736.877	17463.34106
737.07	17838.07106
737.263	17785.39942
737.456	18139.96567
737.649	18206.83902
737.842	18413.56401
738.035	17803.63165
738.228	18048.78112
738.421	17734.75578
738.614	17890.74503
738.807	17769.19323
739	17578.78647
739.192	17586.88829
739.385	17532.20198
739.578	17469.41688
739.771	17443.08854
739.964	17518.02443
740.156	17548.40509
740.349	17457.26527
740.542	17520.04979
740.735	17319.55485
740.927	17518.02443
741.12	17163.63481
741.313	17275.00449
741.505	17416.76073
741.698	17139.33713
741.891	17445.11378
742.083	17228.43064
742.276	17467.3916
742.468	17663.85821
742.661	17534.22736
742.854	17872.51147
743.046	17629.42371
743.239	17550.43049
743.431	17639.55141
743.624	17410.68515
743.816	17473.46744
744.009	17345.88075
744.201	17177.80864
744.393	17224.38081
744.586	16886.25986
744.778	17036.07649
744.971	17483.59389
745.163	17394.48376
745.355	17432.9624
745.548	17459.29053
745.74	17076.57
745.932	17133.26277
746.125	17218.3061
746.317	17048.22443
746.509	17019.8794
746.702	17341.83058
746.894	17068.47121
747.086	17339.8055
747.278	17307.40461
747.471	17044.17511
747.663	17005.70708
747.855	17343.85566
748.047	17042.15045
748.239	17376.25743
748.431	16930.79843
748.623	17254.7548
748.815	16926.74942
749.008	17311.45468
749.2	17495.74574
749.392	17021.90402
749.584	16884.23541
749.776	17198.05723
749.968	17076.57
750.16	17232.48048
750.352	16770.87017
750.544	17175.7838
750.736	17287.15444
750.928	17266.90458
751.12	16944.97006
751.311	17013.80553
751.503	17169.70929
751.695	16855.89336
751.887	16661.56091
752.079	17017.85477
752.271	16659.53673
752.463	16853.86895
752.654	16882.21096
752.846	16635.24673
753.038	16467.24965
753.23	16487.48948
753.421	16608.93294
753.613	16364.02965
753.805	16515.8256
753.997	16612.98119
754.188	16382.24457
754.38	16143.43848
754.572	16220.33945
754.763	16189.98352
754.955	16129.27277
755.146	16529.99381
755.338	15989.64336
755.53	16094.87065
755.721	16208.19703
755.913	16258.79087
756.104	16173.79384
756.296	16274.98113
756.487	16058.44537
756.679	16137.36745
756.87	16125.22544
757.062	16032.13852
757.253	16078.68158
757.445	16242.60072
757.636	16412.60312
757.827	16805.28379
758.019	16283.0763
758.21	16370.10127
758.401	16151.53321
758.593	15910.72539
758.784	16357.95804
758.975	16159.62796
759.167	15880.37284
759.358	15985.59624
759.549	16109.03618
759.74	16368.07739
759.932	15932.9841
760.123	16090.82338
760.314	15939.05468
760.505	15736.70768
760.696	15635.53812
760.888	16096.89429
761.079	15676.00567
761.27	15676.00567
761.461	15740.75452
761.652	15696.23958
761.843	15251.10904
762.034	15301.69095
762.225	15408.92519
762.416	15845.97362
762.607	16007.8555
762.798	15756.94188
762.989	15584.95414
763.18	15178.27125
763.371	15305.73751
763.562	15518.184
763.753	15311.80735
763.944	15510.09069
764.135	15113.52658
764.326	15497.95076
764.517	15004.26968
764.708	15297.64439
764.899	15153.992
765.089	15176.24798
765.28	14965.82725
765.471	15546.51063
765.662	15307.76079
765.853	15311.80735
766.043	15198.50396
766.234	15202.5505
766.425	14542.94546
766.615	14789.79925
766.806	15062.94475
766.997	15259.20214
767.187	14941.54776
767.378	15279.43489
767.569	14927.38469
767.759	15004.26968
767.95	14919.2915
768.141	15170.17817
768.331	15184.34106
768.522	15226.82976
768.712	14982.01355
768.903	15097.34041
769.093	14793.84592
769.284	15048.78182
769.474	15052.82837
769.665	14812.05591
769.855	14553.06273
770.046	14514.61693
770.236	14453.91208
770.426	14810.03258
770.617	14654.23383
770.807	14640.07004
770.998	14729.09879
771.188	14854.54568
771.378	14360.82876
771.569	14332.49839
771.759	14160.48493
771.949	14209.05484
772.139	14743.2623
772.33	14308.21495
772.52	14619.83596
772.71	14364.87593
772.9	14277.86029
773.09	14160.48493
773.281	14409.39438
773.471	14627.92961
773.661	14563.17996
773.851	14405.34728
774.041	14462.00614
774.231	14472.12367
774.421	14399.27662
774.611	14431.65332
774.802	14043.10254
774.992	14188.81752
775.182	13830.57905
775.372	14109.88999
775.562	14045.12644
775.752	14352.73441
775.942	13765.80395
776.131	13775.92526
776.321	13925.71219
776.511	14037.03083
776.701	13976.31251
776.891	14300.12041
777.081	13747.58541
777.271	13974.28853
777.461	13976.31251
777.651	13769.85249
777.84	13654.46441
778.03	13976.31251
778.22	14126.08052
778.41	14334.522
778.599	13897.37529
778.789	13842.72405
778.979	13676.73309
779.169	13555.2626
779.358	13490.47317
779.548	13648.39106
779.738	13433.77929
779.927	13314.30713
780.117	13387.20706
780.307	13208.99759
780.496	13127.98208
780.686	13277.85514
780.875	13391.2569
781.065	13484.39896
781.254	13109.75258
781.444	13524.89302
781.633	13480.34948
781.823	13644.34215
782.012	13415.55562
782.202	13715.19626
782.391	13391.2569
782.581	13375.05744
782.77	13026.70213
782.96	12787.63105
783.149	12680.22675
783.338	12951.74702
783.528	13004.4189
783.717	13308.23189
783.906	13121.90562
784.096	12913.25384
784.285	12700.49296
784.474	12728.86467
784.663	12923.38381
784.853	12807.89422
785.042	12866.65427
785.231	13273.80484
785.42	13198.87105
785.61	13174.56689
785.799	12868.6804
785.988	13030.75356
786.177	13028.72785
786.366	12852.47123
786.555	13085.44597
786.744	13200.89637
786.933	12850.44506
787.122	12793.71006
787.312	12982.13506
787.501	12899.07166
787.69	12680.22675
787.879	12749.12948
788.068	12250.43433
788.257	12526.18377
788.445	12416.70996
788.634	12627.53182
788.823	12540.37344
789.012	12495.77628
789.201	12530.23799
789.39	12201.7593
789.579	12203.78751
789.768	12234.20978
789.957	11875.11762
790.145	12146.99484
790.334	11923.82261
790.523	12082.08173
790.712	12290.99369
790.9	12327.49469
791.089	11942.08576
791.278	12073.96704
791.467	12286.93788
791.655	12177.42021
791.844	12201.7593
792.033	12136.85268
792.221	11852.79291
792.41	11942.08576
792.599	11998.90026
792.787	12343.71664
792.976	12368.04873
793.164	12301.13309
793.353	12457.25804
793.541	12457.25804
793.73	12100.33933
793.918	12157.13682
794.107	12116.56779
794.295	12238.26596
794.484	12092.22492
794.672	12007.01611
794.861	11927.88114
795.049	11862.94063
795.238	11688.36999
795.426	11499.51583
795.614	11690.40025
795.803	11716.79285
795.991	11749.274
796.179	11864.97015
796.368	11422.32626
796.556	11617.30516
796.744	11280.09782
796.932	11363.40897
797.121	11308.54744
797.309	11497.48471
797.497	11840.61536
797.685	11655.88458
797.874	11548.26005
798.062	11956.28998
798.25	11365.44074
798.438	11911.64681
798.626	11576.69169
798.814	11408.1056
799.002	11274.00122
799.19	11314.64353
799.378	11462.95408
799.566	11235.38724
799.755	11393.88446
799.943	11426.38921
800.131	11267.90452
800.318	11438.57785
800.506	11462.95408
800.694	11471.07918
800.882	11123.58871
801.07	11229.28995
801.258	11237.41965
801.446	11432.48358
801.634	11017.85852
801.822	11172.37744
802.01	11188.639
802.197	11294.32288
802.385	10926.33716
802.573	11109.35751
802.761	11093.09263
802.949	11190.67165
803.136	10934.47331
803.324	11170.3447
803.512	10912.09845
803.699	11172.37744
803.887	11263.84
804.075	10629.23986
804.262	10863.27578
804.45	11133.75354
804.638	10728.97884
804.825	11007.6906
805.013	11137.81939
805.201	11369.50425
805.388	11025.99266
805.576	10985.32019
805.763	10800.20329
805.951	11182.54099
806.138	10808.34231
806.326	11139.8523
806.513	10897.85919
806.701	10897.85919
806.888	10901.9276
807.075	11038.19354
807.263	10901.9276
807.45	11133.75354
807.638	10905.99598
807.825	11276.03343
808.012	10912.09845
808.2	10987.35392
808.387	11113.42362
808.574	11058.52746
808.761	11099.19204
808.949	11204.89988
809.136	11198.80213
809.323	11477.17291
809.51	11361.37719
809.698	10985.32019
809.885	10871.41335
810.072	10967.01612
810.259	10952.779
810.446	10737.11951
810.633	10682.16621
810.82	11044.29383
811.008	10877.51641
811.195	10999.55606
811.382	10946.6772
811.569	11060.5608
811.756	10901.9276
811.943	11162.21363
812.13	11178.47561
812.317	11416.23175
812.504	11261.80773
812.691	11172.37744
812.878	11271.969
813.064	11210.99754
813.251	10785.95956
813.438	11239.45204
813.625	10861.24135
813.812	11101.22516
813.999	11176.44289
814.186	11011.7578
814.372	11186.60634
814.559	11393.88446
814.746	11389.82119
814.933	10985.32019
815.12	10901.9276
815.306	11072.76056
815.493	11028.02617
815.68	11245.54917
815.866	10694.37882
816.053	11180.5083
816.24	11025.99266
816.426	11215.06259
816.613	10830.72364
816.799	11219.12761
816.986	11145.95097
817.173	11005.65698
817.359	10844.96556
817.546	10993.45504
817.732	10787.99442
817.919	11115.45666
818.105	10999.55606
818.292	11145.95097
818.478	10893.79072
818.665	10836.82739
818.851	10954.8129
819.037	11274.00122
819.224	10987.35392
819.41	11066.66073
819.597	10897.85919
819.783	11019.89207
819.969	11147.98384
820.156	11292.29076
820.342	10960.91456
820.528	11208.965
820.714	10857.17248
820.901	10936.50732
821.087	10812.41175
821.273	11101.22516
821.459	11048.36064
821.646	11564.50692
821.832	10806.30757
822.018	10932.43929
822.204	10775.78512
822.39	10952.779
822.576	10755.43533
822.762	10696.41421
822.948	10629.23986
823.134	10724.90843
823.32	10541.68948
823.507	11044.29383
823.693	10893.79072
823.879	10926.33716
824.065	10669.95317
824.25	10979.21893
824.436	10629.23986
824.622	11044.29383
824.808	10704.55566
824.994	10690.308
825.18	10767.64535
825.366	10879.55074
825.552	10523.36205
825.738	10649.59713
825.923	10250.363
826.109	10380.77999
826.295	10366.51828
826.481	10814.44645
826.667	10560.01589
826.852	10783.9247
827.038	10568.16063
827.224	10706.59099
827.409	10262.59192
827.595	10258.51567
827.781	10097.45979
827.966	10262.59192
828.152	10250.363
828.338	10464.3
828.523	10156.59159
828.709	10380.77999
828.894	10013.83946
829.08	10246.28658
829.266	10060.75136
829.451	10201.44241
829.637	9928.15462
829.822	10350.2184
830.008	9681.15488
830.193	10005.68009
830.378	9795.49615
830.564	10185.13379
830.749	10064.8303
830.935	10274.82036
831.12	10181.0565
831.305	10148.43618
831.491	9793.45476
831.676	10005.68009
831.861	9719.9546
832.047	10058.71187
832.232	9670.94351
832.417	9746.49859
832.602	9854.68998
832.788	10024.03834
832.973	9856.73092
833.158	10032.19719
833.343	9895.50602
833.528	9868.97627
833.714	9713.8287
833.899	9752.62376
834.084	9450.28222
834.269	9819.99167
834.454	9585.15264
834.639	9687.28152
834.824	9593.32439
835.009	9721.99654
835.194	9282.61775
835.379	9491.15939
835.564	9372.59777
835.749	9517.72611
835.934	9354.19536
836.119	9726.08036
836.304	9509.55202
836.489	9511.59556
836.674	9143.49403
836.859	9335.79163
837.044	9266.25429
837.228	9703.61855
837.413	9307.16093
837.598	9485.02822
837.783	9256.02659
837.968	9388.95434
838.152	9245.79847
838.337	9337.83655
838.522	9223.29512
838.707	9331.70173
838.891	9075.94971
839.076	9454.37023
839.261	9284.66311
839.445	9174.18981
839.63	8696.93664
839.815	8819.92714
839.999	8573.8797
840.184	8983.81339
840.368	9108.70081
840.553	9067.76124
840.737	8830.17339
840.922	8881.39788
841.106	8873.20272
841.291	8852.71355
841.475	8746.14074
841.66	8723.59017
841.844	8553.36366
842.029	8694.88624
842.213	8393.27334
842.397	8592.34253
842.582	8282.37289
842.766	8444.59701
842.951	8446.64971
843.135	8727.69044
843.319	8327.56141
843.504	8541.05313
843.688	8343.99126
843.872	8623.11053
844.056	8770.73883
844.241	8832.22259
844.425	8473.33302
844.609	8713.33918
844.793	8502.06529
844.977	8770.73883
845.161	8323.45375
845.346	8616.95727
845.53	8210.46245
845.714	8461.01805
845.898	8204.29757
846.082	8504.11746
846.266	8385.06044
846.45	8473.33302
846.634	8362.47335
846.818	8350.15213
847.002	8212.51737
847.186	8559.51867
847.37	8068.62483
847.554	8294.69797
847.738	8101.52321
847.922	7941.09459
848.106	7912.28657
848.29	7854.65841
848.473	7829.95565
848.657	7883.47451
848.841	7951.38219
849.025	7883.47451
849.209	7801.13199
849.392	8253.61161
849.576	8095.35516
849.76	8228.95602
849.944	8083.01851
850.127	8097.4112
850.311	7720.8159
850.495	7846.42449
850.678	7628.1037
850.862	7677.55554
851.046	7553.90295
851.229	7547.71831
851.413	7687.85647
851.596	7673.43502
851.78	7599.25114
851.964	7644.589
852.147	7477.61214
852.331	7803.19096
852.514	7393.03914
852.698	7628.1037
852.881	7360.02513
853.065	7454.9254
853.248	7194.87089
853.431	7318.74975
853.615	7401.29177
853.798	7634.28585
853.982	7582.76209
854.165	7646.64957
854.348	7372.40603
854.532	7691.9767
854.715	7242.36717
854.898	7454.9254
855.081	7116.37307
855.265	7362.08867
855.448	7037.84305
855.631	7085.37824
855.814	7025.44061
855.997	7296.04456
856.181	6996.49845
856.364	7357.96157
856.547	7029.57485
856.73	7029.57485
856.913	6824.82187
857.096	7240.30236
857.279	7141.16532
857.462	7281.59442
857.645	7108.10827
857.828	7041.97701
858.011	6961.34847
858.194	6919.9872
858.377	6884.823
858.56	6785.50041
858.743	6810.33598
858.926	6855.85933
859.109	6690.26689
859.292	6808.26647
859.475	6710.97395
859.658	7025.44061
859.841	6729.60835
860.023	6886.89166
860.206	6793.77929
860.389	6951.009
860.572	6545.25299
860.755	6818.61377
860.937	6797.9186
861.12	6899.30317
861.303	6917.9189
861.486	7163.88874
861.668	6650.91714
861.851	6344.11755
862.034	6302.61906
862.216	6514.16385
862.399	6115.75998
862.581	6507.9454
862.764	6001.47464
862.947	6443.67583
863.129	6246.58127
863.312	6354.49071
863.494	6348.26688
863.677	6454.0434
863.859	6196.75557
864.042	5991.08153
864.224	6238.27793
864.406	6163.53093
864.589	6045.11926
864.771	6256.95993
864.954	6088.7535
865.136	6211.28946
865.318	5706.08095
865.501	6074.20991
865.683	5951.58235
865.865	6032.65043
866.048	5955.74056
866.23	6157.30064
866.412	6171.83765
866.594	6190.52641
866.777	5672.76733
866.959	5939.10715
867.141	5735.22542
867.323	5907.91545
867.505	5997.31747
867.687	5791.41954
867.869	5972.37245
868.052	5984.84538
868.234	6121.99168
868.416	6202.98452
868.598	5835.11418
868.78	5893.35751
868.962	5697.75311
869.144	5972.37245
869.326	5658.19072
869.508	5622.78557
869.69	5568.62333
869.872	5793.50047
870.054	5424.80788
870.236	5614.45395
870.417	5508.19281
870.599	5726.8989
870.781	5579.04038
870.963	5618.61981
871.145	5364.33029
871.327	5447.74249
871.508	5262.09922
871.69	5501.94024
871.872	5355.98701
872.054	5676.93186
872.235	5308.00584
872.417	5626.95123
872.599	5560.28926
872.78	5622.78557
872.962	5422.72278
873.144	5610.288
873.325	5293.40041
873.507	5556.12209
873.689	5291.31383
873.87	5533.20094
874.052	5324.69635
874.233	5656.10825
874.415	5618.61981
874.596	5614.45395
874.778	5186.95489
874.959	5706.08095
875.141	5341.38536
875.322	5604.0389
875.503	5226.61817
875.685	5360.1587
875.866	5126.4
876.048	5414.38212
876.229	5330.9549
876.41	5431.06306
876.592	5437.31802
876.773	5483.18128
876.954	5431.06306
877.136	5658.19072
877.317	5239.14166
877.498	5689.42489
877.679	5310.09223
877.86	5255.83834
878.042	5268.35988
878.223	5372.6732
878.404	5355.98701
878.585	5447.74249
878.766	5406.04109
878.947	5426.89296
879.128	5456.08164
879.309	5451.91211
879.49	5230.79276
879.672	5785.17659
879.853	5418.55249
880.034	5672.76733
880.215	5293.40041
880.396	5499.85601
880.576	5416.46732
880.757	5614.45395
880.938	5180.6915
881.119	5487.3501
881.3	5533.20094
881.481	5376.84452
881.662	5255.83834
881.843	5260.01228
882.023	5214.09383
882.204	5366.41606
882.385	5124.31155
882.566	5324.69635
882.747	5180.6915
882.927	5572.79022
883.108	5451.91211
883.289	5406.04109
883.469	5257.92532
883.65	5441.48788
883.831	5305.91942
884.011	5431.06306
884.192	5389.3579
884.373	5664.43798
884.553	5593.62327
884.734	5774.77122
884.914	5424.80788
885.095	5572.79022
885.275	5212.00636
885.456	5631.1168
885.636	5431.06306
885.817	5572.79022
885.997	5520.6973
886.178	5622.78557
886.358	5510.27695
886.538	5412.2969
886.719	5476.92787
886.899	5706.08095
887.08	5739.38853
887.26	5697.75311
887.44	5118.04607
887.621	5556.12209
887.801	5132.66521
887.981	5645.69556
888.161	5489.43448
888.342	5747.71449
888.522	5579.04038
888.702	5741.47006
888.882	5479.01236
889.062	5499.85601
889.242	5606.12196
889.423	5601.95582
889.603	5431.06306
889.783	5337.21324
889.963	5128.48843
890.143	5420.63765
890.323	5351.81522
890.503	5572.79022
890.683	5489.43448
890.863	5531.11706
891.043	5526.94923
891.223	5604.0389
891.403	5337.21324
891.583	5558.20569
891.763	5207.83135
891.943	5585.29033
892.122	5287.14059
892.302	5579.04038
892.482	5230.79276
892.662	5339.29931
892.842	5291.31383
893.022	5601.95582
893.201	5458.16637
893.381	5495.68747
893.561	4965.52168
893.741	5314.26495
893.92	5166.07611
894.1	5159.81202
894.28	5155.63584
894.459	5391.44338
894.639	4858.89071
894.819	5084.62662
894.998	4873.52987
895.178	5147.28321
895.357	5032.39686
895.537	5026.12831
895.716	4892.34999
895.896	5214.09383
896.075	4873.52987
896.255	4986.42271
896.434	4840.0673
896.614	5180.6915
896.793	5017.76993
896.973	5115.95753
897.152	4969.70207
897.331	5074.18182
897.511	4890.25895
897.69	4848.43349
897.87	4917.44059
898.049	5109.69176
898.228	5024.03875
898.407	4821.24205
898.587	4727.08814
898.766	4988.51269
898.945	4741.73732
899.124	4996.87236
899.304	4697.78647
899.483	4814.96655
899.662	4722.90246
899.841	4892.34999
900.02	4821.24205
900.199	4773.12468
900.378	4614.04311
900.557	4643.35737
900.737	4473.69304
900.916	4440.16193
901.095	4264.03216
901.274	4444.35363
901.453	4159.1211
901.632	4429.68231
901.811	4209.48503
901.989	4234.66242
902.168	3915.52635
902.347	4438.06605
902.526	3915.52635
902.705	3865.09317
902.884	3934.4358
903.063	4125.5384
903.242	4083.5525
903.42	4089.85091
903.599	4012.15741
903.778	4213.68148
903.957	3984.853
904.135	4112.94351
904.314	3867.19478
904.493	3911.32402
904.672	3663.24692
904.85	3940.73859
905.029	3549.63081
905.207	3818.85267
905.386	3547.5263
905.565	3848.27956
905.743	3757.88471
905.922	3848.27956
906.1	3532.79418
906.279	3627.4848
906.457	3286.42702
906.636	3467.54116
906.814	3343.30235
906.993	3488.59243
907.171	3292.74711
907.35	3486.48738
907.528	3039.82727
907.707	3227.4321
907.885	3010.30501
908.063	3294.85378
908.242	3107.29529
908.42	3176.85463
908.598	2972.34344
908.777	3060.91274
908.955	2845.7703
909.133	3117.8357
909.311	2923.82993
909.49	2968.12518
909.668	2968.12518
909.846	2917.50151
910.024	2786.6853
910.202	3094.64626
910.38	2972.34344
910.559	3271.67953
910.737	3115.72765
910.915	3290.64043
911.093	3033.50132
911.271	3124.15976
911.449	2824.66976
911.627	3174.74703
911.805	3001.86953
911.983	3191.60737
912.161	2833.11015
912.339	3216.89591
912.517	2970.23432
912.695	3212.68132
912.872	2799.34729
913.05	3073.56328
913.228	3006.0873
913.406	3157.88565
913.584	3145.23892
913.762	3446.48809
913.939	3292.74711
914.117	3417.01078
914.295	3031.39264
914.473	3244.28914
914.65	3197.92973
914.828	3259.03816
915.006	2995.54276
915.184	3347.51483
915.361	2885.85743
915.539	3174.74703
915.716	2925.93938
915.894	3109.4034
916.072	2693.81601
916.249	2909.06341
916.427	2816.22916
916.604	3355.9396
916.782	2871.08909
916.959	2966.01603
917.137	2911.17296
917.314	2932.26763
917.492	2894.29617
917.669	3046.15307
917.847	2835.22021
918.024	2885.85743
918.201	2845.7703
918.379	2963.90687
918.556	2586.1409
918.733	2710.70323
918.911	2605.14473
919.088	2746.58581
919.265	2499.55578
919.442	2645.26067
919.62	2442.52587
919.797	2748.69643
919.974	2465.76125
920.151	2698.03789
920.328	2478.43453
920.506	2776.13328
920.683	2537.57117
920.86	2630.48163
921.037	2381.26278
921.214	2651.59435
921.391	2560.80095
921.568	2693.81601
921.745	2565.0244
921.922	2533.34742
922.099	2262.93771
922.276	2628.37029
922.453	2351.68439
922.63	2548.13034
922.807	2222.78502
922.984	2372.81202
923.161	2205.87767
923.338	2516.45197
923.514	2262.93771
923.691	2298.86101
923.868	2083.28367
924.045	2246.03171
924.222	2026.20538
924.399	2140.35662
924.575	1880.31732
924.752	2104.42245
924.929	2072.71401
925.105	2176.2885
925.282	2062.14417
925.459	2214.33142
925.635	2019.86303
925.812	2072.71401
925.989	1848.59901
926.165	2112.87775
926.342	1933.17855
926.518	1829.5675
926.695	1920.49217
926.871	2047.34608
927.048	1789.38866
927.224	1931.06417
927.401	1764.01177
927.577	1909.92003
927.754	1611.74035
927.93	1804.19157
928.107	1770.35605
928.283	1895.11881
928.459	1831.68213
928.636	1916.26333
928.812	1723.83059
928.988	1859.1719
929.165	1482.72408
929.341	1806.30626
929.517	1586.3605
929.693	1799.96219
929.87	1666.72896
930.046	1814.76495
930.222	1484.83912
930.398	1544.06024
930.574	1393.89199
930.751	1514.44976
930.927	1307.17624
931.103	1618.08527
931.279	1357.93641
931.455	1349.47632
931.631	1332.55621
931.807	1518.67984
931.983	1387.54686
932.159	1438.30799
932.335	1326.2112
932.511	1330.44121
932.687	1150.67455
932.863	1370.62658
933.039	1237.38293
933.215	1372.74161
933.391	1154.90408
933.566	1341.01625
933.742	1095.69222
933.918	1247.95749
934.094	968.8236
934.27	1085.11906
934.445	934.99584
934.621	1070.31686
934.797	903.28403
934.973	1053.40037
935.148	841.97964
935.324	816.61443
935.5	683.47028
935.675	850.435
935.851	702.4883
936.027	829.29687
936.202	751.09394
936.378	761.66112
936.553	658.11436
936.729	552.48376
936.904	535.58592
937.08	609.52034
937.255	436.32974
937.431	478.56239
937.606	366.65975
937.782	478.56239
937.957	440.55273
938.133	448.99889
938.308	282.23623
938.483	413.10444
938.659	303.33942
938.834	353.99443
939.009	347.662
939.185	320.22329
939.36	299.11864
939.535	204.17086
939.71	237.92561
939.886	254.80485
940.061	216.8283
940.236	284.34646
940.411	301.22902
940.586	278.01581
940.761	208.38993
940.937	168.31207
941.112	185.18606
941.287	174.63967
941.462	202.06136
941.637	244.25518
941.812	183.07674
941.987	216.8283
942.162	212.60907
942.337	208.38993
942.512	119.80683
942.687	193.62355
942.862	134.5681
943.037	164.09378
943.212	115.58952
943.386	191.51415
943.561	145.11251
943.736	155.65745
943.911	111.37229
944.086	153.54842
944.26	64.98867
944.435	168.31207
944.61	115.58952
944.785	168.31207
944.959	100.82962
945.134	119.80683
945.309	155.65745
945.483	58.66448
945.658	166.20292
945.833	115.58952
946.007	157.7665
946.182	69.20492
946.357	145.11251
946.531	35.47754
946.706	111.37229
946.88	166.20292
947.055	176.7489
947.229	132.45929
947.404	193.62355
947.578	119.80683
947.752	151.43941
947.927	147.22146
948.101	83.96248
948.276	121.91552
948.45	48.12461
948.624	248.47499
948.799	208.38993
948.973	166.20292
949.147	151.43941
949.321	157.7665
949.496	199.95188
949.67	145.11251
949.844	174.63967
950.018	153.54842
950.193	138.7858
950.367	149.33043
950.541	128.24171
950.715	143.00359
950.889	161.98467
951.063	204.17086
951.237	193.62355
951.411	197.84241
951.585	138.7858
951.759	174.63967
951.933	199.95188
952.107	88.17913
952.281	227.37671
952.455	88.17913
952.629	159.87558
952.803	115.58952
952.977	187.2954
953.151	172.53045
953.325	151.43941
953.499	225.26699
953.672	216.8283
953.846	168.31207
954.02	174.63967
954.194	208.38993
954.368	128.24171
954.541	155.65745
954.715	161.98467
954.889	149.33043
955.062	172.53045
955.236	178.85816
955.41	225.26699
955.583	161.98467
955.757	174.63967
955.93	193.62355
956.104	124.02423
956.278	199.95188
956.451	149.33043
956.625	212.60907
956.798	166.20292
956.972	210.49949
957.145	176.7489
957.319	166.20292
957.492	134.5681
957.665	140.89469
957.839	132.45929
958.012	174.63967
958.185	117.69816
958.359	178.85816
958.532	187.2954
958.705	242.1453
958.879	132.45929
959.052	191.51415
959.225	115.58952
959.398	250.58493
959.572	197.84241
959.745	180.96744
959.918	191.51415
960.091	117.69816
960.264	185.18606
960.438	199.95188
960.611	113.4809
960.784	168.31207
960.957	136.67694
961.13	176.7489
961.303	128.24171
961.476	73.42125
961.649	166.20292
961.822	210.49949
961.995	202.06136
962.168	193.62355
962.341	172.53045
962.514	218.93794
962.686	210.49949
962.859	174.63967
963.032	121.91552
963.205	140.89469
963.378	233.70599
963.551	140.89469
963.723	233.70599
963.896	159.87558
964.069	202.06136
964.242	140.89469
964.414	140.89469
964.587	185.18606
964.76	115.58952
964.932	126.13296
965.105	187.2954
965.278	185.18606
965.45	132.45929
965.623	172.53045
965.795	132.45929
965.968	64.98867
966.14	69.20492
966.313	119.80683
966.485	107.15516
966.658	187.2954
966.83	204.17086
967.003	147.22146
967.175	170.42125
967.348	140.89469
967.52	117.69816
967.692	143.00359
967.865	145.11251
968.037	128.24171
968.209	71.31307
968.382	77.63768
968.554	98.72115
968.726	183.07674
968.898	98.72115
969.071	58.66448
969.243	75.52945
969.415	195.73297
969.587	102.93811
969.759	90.28749
969.932	143.00359
970.104	132.45929
970.276	109.26371
970.448	102.93811
970.62	124.02423
970.792	132.45929
970.964	121.91552
971.136	126.13296
971.308	161.98467
971.48	166.20292
971.652	37.58533
971.824	159.87558
971.996	69.20492
972.168	195.73297
972.339	149.33043
972.511	86.0708
972.683	105.04662
972.855	126.13296
973.027	128.24171
973.199	94.50427
973.37	126.13296
973.542	109.26371
973.714	145.11251
973.886	-12.99502
974.057	98.72115
974.229	79.74592
974.401	107.15516
974.572	147.22146
974.744	92.39587
974.915	105.04662
975.087	86.0708
975.259	143.00359
975.43	77.63768
975.602	-2.45859
975.773	124.02423
975.945	62.88058
976.116	86.0708
976.288	16.50851
976.459	50.23254
976.63	195.73297
976.802	56.55646
976.973	-0.35123
977.145	31.26204
977.316	100.82962
977.487	102.93811
977.659	100.82962
977.83	143.00359
978.001	-23.53085
978.172	83.96248
978.344	50.23254
978.515	48.12461
978.686	115.58952
978.857	143.00359
979.028	86.0708
979.2	102.93811
979.371	100.82962
979.542	69.20492
979.713	90.28749
979.884	22.83131
980.055	102.93811
980.226	92.39587
980.397	166.20292
980.568	41.80097
980.739	-4.56592
980.91	115.58952
981.081	64.98867
981.252	-15.10224
981.423	14.40096
981.594	10.18593
981.765	64.98867
981.936	22.83131
982.106	107.15516
982.277	69.20492
982.448	166.20292
982.619	31.26204
982.79	39.69314
982.96	35.47754
983.131	22.83131
983.302	100.82962
983.472	27.04663
983.643	31.26204
983.814	73.42125
983.984	96.6127
984.155	62.88058
984.326	60.77252
984.496	35.47754
984.667	58.66448
984.837	-2.45859
985.008	83.96248
985.178	39.69314
985.349	50.23254
985.519	134.5681
985.69	90.28749
985.86	54.44846
986.031	81.85419
986.201	41.80097
986.371	24.93896
986.542	52.34049
986.712	77.63768
986.882	134.5681
987.053	-8.78052
987.223	107.15516
987.393	98.72115
987.563	39.69314
987.734	-53.02787
987.904	136.67694
988.074	27.04663
988.244	-19.31659
988.414	77.63768
988.585	-10.88778
988.755	10.18593
988.925	31.26204
989.095	60.77252
989.265	58.66448
989.435	69.20492
989.605	27.04663
989.775	50.23254
989.945	54.44846
990.115	67.09678
990.285	111.37229
990.455	-50.9211
990.625	64.98867
990.795	20.72369
990.965	54.44846
991.134	88.17913
991.304	35.47754
991.474	130.35049
991.644	67.09678
991.814	41.80097
991.984	-53.02787
992.153	67.09678
992.323	64.98867
992.493	69.20492
992.662	69.20492
992.832	81.85419
993.002	-31.95906
993.171	-4.56592
993.341	14.40096
993.511	24.93896
993.68	20.72369
993.85	79.74592
994.019	81.85419
994.189	-44.60065
994.358	27.04663
994.528	64.98867
994.697	121.91552
994.867	111.37229
995.036	83.96248
995.206	22.83131
995.375	-27.74501
995.544	-4.56592
995.714	18.61609
995.883	50.23254
996.052	43.90883
996.222	58.66448
996.391	39.69314
996.56	33.36978
996.73	90.28749
996.899	-6.67324
997.068	67.09678
997.237	22.83131
997.406	41.80097
997.576	22.83131
997.745	14.40096
997.914	64.98867
998.083	29.15432
998.252	56.55646
998.421	64.98867
998.59	136.67694
998.759	-17.20943
998.928	60.77252
999.097	64.98867
999.266	-46.70749
999.435	48.12461
999.604	1.75615
999.773	31.26204
999.942	48.12461
1000.111	5.97099
1000.28	27.04663
1000.448	35.47754
1000.617	-10.88778
1000.786	31.26204
1000.955	77.63768
1001.124	31.26204
1001.292	5.97099
1001.461	12.29343
1001.63	-48.81431
1001.798	83.96248
1001.967	-42.49378
1002.136	-27.74501
1002.304	-8.78052
1002.473	83.96248
1002.642	31.26204
1002.81	-42.49378
1002.979	33.36978
1003.147	62.88058
1003.316	-0.35123
1003.484	-97.26409
1003.653	100.82962
1003.821	-0.35123
1003.99	-2.45859
1004.158	81.85419
1004.327	64.98867
1004.495	-8.78052
1004.663	115.58952
1004.832	-12.99502
1005	77.63768
1005.168	10.18593
1005.337	-21.42373
1005.505	3.86356
1005.673	39.69314
1005.842	-8.78052
1006.01	62.88058
1006.178	75.52945
1006.346	22.83131
1006.514	37.58533
1006.683	54.44846
1006.851	-17.20943
1007.019	5.97099
1007.187	33.36978
1007.355	41.80097
1007.523	41.80097
1007.691	10.18593
1007.859	-44.60065
1008.027	-19.31659
1008.195	-38.27997
1008.363	37.58533
1008.531	5.97099
1008.699	41.80097
1008.867	-19.31659
1009.035	-53.02787
1009.203	64.98867
1009.37	-17.20943
1009.538	-46.70749
1009.706	24.93896
1009.874	14.40096
1010.042	-4.56592
1010.209	56.55646
1010.377	16.50851
1010.545	-21.42373
1010.713	79.74592
1010.88	22.83131
1011.048	5.97099
1011.216	37.58533
1011.383	64.98867
1011.551	24.93896
1011.718	77.63768
1011.886	16.50851
1012.054	-27.74501
1012.221	79.74592
1012.389	-46.70749
1012.556	-31.95906
1012.724	24.93896
1012.891	-2.45859
1013.058	-8.78052
1013.226	3.86356
1013.393	8.07845
1013.561	-21.42373
1013.728	35.47754
1013.895	16.50851
1014.063	10.18593
1014.23	-10.88778
1014.397	33.36978
1014.565	-19.31659
1014.732	81.85419
1014.899	46.01671
1015.066	10.18593
1015.233	-40.38689
1015.401	27.04663
1015.568	46.01671
1015.735	16.50851
1015.902	-0.35123
1016.069	77.63768
1016.236	41.80097
1016.403	14.40096
1016.57	-2.45859
1016.737	-4.56592
1016.904	-86.73269
1017.071	-40.38689
1017.238	-27.74501
1017.405	-50.9211
1017.572	5.97099
1017.739	48.12461
1017.906	24.93896
1018.073	35.47754
1018.24	-40.38689
1018.407	48.12461
1018.573	-15.10224
1018.74	29.15432
1018.907	-8.78052
1019.074	8.07845
1019.241	-12.99502
1019.407	-10.88778
1019.574	27.04663
1019.741	-4.56592
1019.907	-19.31659
1020.074	52.34049
1020.241	-31.95906
1020.407	5.97099
1020.574	24.93896
1020.74	-17.20943
1020.907	-23.53085
1021.073	37.58533
1021.24	-42.49378
1021.406	75.52945
1021.573	-48.81431
1021.739	52.34049
1021.906	-44.60065
1022.072	64.98867
1022.239	-19.31659
1022.405	39.69314
1022.571	22.83131
1022.738	-19.31659
1022.904	56.55646
1023.07	33.36978
1023.237	5.97099
1023.403	35.47754
1023.569	20.72369
1023.735	-27.74501
1023.902	24.93896
1024.068	-86.73269
1024.234	90.28749
1024.4	-19.31659
1024.566	14.40096
1024.732	-27.74501
1024.898	5.97099
1025.065	-17.20943
1025.231	5.97099
1025.397	1.75615
1025.563	-2.45859
1025.729	14.40096
1025.895	14.40096
1026.061	12.29343
1026.227	-19.31659
1026.392	18.61609
1026.558	27.04663
1026.724	-2.45859
1026.89	-25.63794
1027.056	22.83131
1027.222	5.97099
1027.388	-0.35123
1027.553	31.26204
1027.719	41.80097
1027.885	-19.31659
1028.051	64.98867
1028.216	-21.42373
1028.382	50.23254
1028.548	1.75615
1028.713	14.40096
1028.879	-15.10224
1029.045	-10.88778
1029.21	96.6127
1029.376	64.98867
1029.541	-23.53085
1029.707	24.93896
1029.873	-10.88778
1030.038	14.40096
1030.204	-27.74501
1030.369	35.47754
1030.534	-0.35123
1030.7	3.86356
1030.865	16.50851
1031.031	88.17913
1031.196	-36.17303
1031.361	48.12461
1031.527	33.36978
1031.692	-90.94533
1031.857	50.23254
1032.023	14.40096
1032.188	-27.74501
1032.353	5.97099
1032.518	-21.42373
1032.684	1.75615
1032.849	-17.20943
1033.014	-48.81431
1033.179	69.20492
1033.344	35.47754
1033.509	-55.13461
1033.674	-10.88778
1033.839	24.93896
1034.004	-2.45859
1034.17	-2.45859
1034.335	-48.81431
1034.5	-25.63794
1034.664	-0.35123
1034.829	22.83131
1034.994	88.17913
1035.159	-19.31659
1035.324	-15.10224
1035.489	35.47754
1035.654	-19.31659
1035.819	16.50851
1035.984	29.15432
1036.148	5.97099
1036.313	16.50851
1036.478	-40.38689
1036.643	52.34049
1036.807	73.42125
1036.972	-2.45859
1037.137	-17.20943
1037.301	14.40096
1037.466	67.09678
1037.631	24.93896
1037.795	43.90883
1037.96	24.93896
1038.124	18.61609
1038.289	10.18593
1038.454	-17.20943
1038.618	18.61609
1038.783	69.20492
1038.947	60.77252
1039.111	-61.45468
1039.276	-15.10224
1039.44	41.80097
1039.605	102.93811
1039.769	14.40096
1039.933	73.42125
1040.098	16.50851
1040.262	-2.45859
1040.426	-103.58262
1040.591	-2.45859
1040.755	41.80097
1040.919	-19.31659
1041.083	52.34049
1041.248	20.72369
1041.412	3.86356
1041.576	31.26204
1041.74	-8.78052
1041.904	27.04663
1042.068	58.66448
1042.232	-27.74501
1042.397	-8.78052
1042.561	-29.85205
1042.725	20.72369
1042.889	-6.67324
1043.053	14.40096
1043.217	18.61609
1043.381	64.98867
1043.544	-36.17303
1043.708	56.55646
1043.872	-44.60065
1044.036	52.34049
1044.2	-10.88778
1044.364	10.18593
1044.528	-10.88778
1044.691	-65.66794
1044.855	20.72369
1045.019	-25.63794
1045.183	56.55646
1045.346	-53.02787
1045.51	-31.95906
1045.674	-21.42373
1045.837	1.75615
1046.001	-48.81431
1046.165	-17.20943
1046.328	14.40096
1046.492	-25.63794
1046.655	-48.81431
1046.819	35.47754
1046.983	67.09678
1047.146	-0.35123
1047.31	22.83131
1047.473	24.93896
1047.636	73.42125
1047.8	-78.3071
1047.963	-10.88778
1048.127	-6.67324
1048.29	14.40096
