Data from Scatter_Coeff_Baseline_USB4F045381__23__0023.txt Node

Date: Thu Feb 13 19:20:40 EST 2025
User: mmckonesweet
Spectrometer: USB4F04538
Trigger mode: 4
Integration Time (sec): 2.400000E-3
Scans to average: 1
Electric dark correction enabled: true
Nonlinearity correction enabled: true
Boxcar width: 0
XAxis mode: Wavelengths
Number of Pixels in Spectrum: 3648
>>>>>Begin Spectral Data<<<<<
345.52	43.20621
345.736	43.20621
345.952	43.20621
346.168	7.37596
346.384	-49.51657
346.6	24.2364
346.816	11.59093
347.032	41.09836
347.248	-85.32845
347.464	17.91356
347.68	24.2364
347.896	41.09836
348.112	-32.6614
348.328	-74.79631
348.544	49.5299
348.76	-7.37567
348.975	-9.48295
349.191	-32.6614
349.407	-53.73012
349.623	-34.76838
349.839	-76.90279
350.055	-1.05368
350.27	1.05369
350.486	-30.55439
350.702	26.34407
350.918	-13.69743
351.133	-17.91182
351.349	24.2364
351.565	32.66719
351.781	-47.40976
351.996	49.5299
352.212	-34.76838
352.428	-11.5902
352.644	-5.26836
352.859	22.12877
353.075	-3.16104
353.291	-9.48295
353.506	15.80599
353.722	15.80599
353.938	70.61035
354.153	49.5299
354.369	55.85379
354.584	43.20621
354.8	41.09836
355.016	7.37596
355.231	22.12877
355.447	3.16109
355.662	60.06984
355.878	11.59093
356.093	-1.05368
356.309	26.34407
356.524	34.77495
356.74	51.63784
356.955	1.05369
357.171	3.16109
357.386	-5.26836
357.602	5.26851
357.817	-13.69743
358.033	-17.91182
358.248	34.77495
358.464	43.20621
358.679	-51.62336
358.895	-11.5902
359.11	-22.12611
359.325	-3.16104
359.541	-17.91182
359.756	22.12877
359.972	-60.05024
360.187	-9.48295
360.402	-41.08919
360.618	57.9618
360.833	-5.26836
361.048	-55.83685
361.264	-36.87534
361.479	-9.48295
361.694	24.2364
361.909	17.91356
362.125	15.80599
362.34	-11.5902
362.555	-66.37014
362.77	91.69308
362.986	-9.48295
363.201	38.99053
363.416	-74.79631
363.631	-68.47672
363.847	116.99528
364.062	34.77495
364.277	15.80599
364.492	-43.19607
364.707	15.80599
364.922	47.42198
365.138	62.17789
365.353	9.48343
365.568	24.2364
365.783	-5.26836
365.998	-22.12611
366.213	-20.01897
366.428	-5.26836
366.643	20.02115
366.858	-91.64742
367.073	36.88273
367.288	-15.80464
367.503	11.59093
367.718	24.2364
367.933	20.02115
368.148	-24.23321
368.363	41.09836
368.578	26.34407
368.793	-24.23321
369.008	-47.40976
369.223	41.09836
369.438	-36.87534
369.653	-24.23321
369.868	-34.76838
370.083	20.02115
370.298	26.34407
370.513	-17.91182
370.728	20.02115
370.943	-1.05368
371.157	-53.73012
371.372	-45.30293
371.587	36.88273
371.802	15.80599
372.017	-26.3403
372.232	34.77495
372.446	-79.00925
372.661	-15.80464
372.876	7.37596
373.091	7.37596
373.306	7.37596
373.52	-9.48295
373.735	20.02115
373.95	-1.05368
374.165	-1.05368
374.379	-1.05368
374.594	-5.26836
374.809	15.80599
375.023	66.39408
375.238	47.42198
375.453	-7.37567
375.667	43.20621
375.882	81.15143
376.097	34.77495
376.311	-41.08919
376.526	-43.19607
376.741	32.66719
376.955	49.5299
377.17	-41.08919
377.384	32.66719
377.599	-45.30293
377.813	-17.91182
378.028	60.06984
378.242	17.91356
378.457	-51.62336
378.672	-13.69743
378.886	-87.4348
379.101	-51.62336
379.315	-13.69743
379.53	-30.55439
379.744	-66.37014
379.958	51.63784
380.173	41.09836
380.387	26.34407
380.602	-17.91182
380.816	-26.3403
381.031	28.45175
381.245	-30.55439
381.459	-70.58328
381.674	-28.44736
381.888	-9.48295
382.103	45.31408
382.317	11.59093
382.531	-60.05024
382.746	28.45175
382.96	20.02115
383.174	-9.48295
383.388	7.37596
383.603	1.05369
383.817	17.91356
384.031	-7.37567
384.246	-22.12611
384.46	57.9618
384.674	-3.16104
384.888	-22.12611
385.103	13.69845
385.317	20.02115
385.531	-76.90279
385.745	32.66719
385.959	-43.19607
386.174	28.45175
386.388	-26.3403
386.602	-49.51657
386.816	-5.26836
387.03	34.77495
387.244	89.5847
387.458	28.45175
387.672	28.45175
387.887	-17.91182
388.101	28.45175
388.315	15.80599
388.529	-76.90279
388.743	-26.3403
388.957	22.12877
389.171	36.88273
389.385	26.34407
389.599	11.59093
389.813	64.28597
390.027	-30.55439
390.241	68.5022
390.455	-17.91182
390.669	34.77495
390.883	-7.37567
391.097	1.05369
391.311	28.45175
391.525	-1.05368
391.738	-30.55439
391.952	7.37596
392.166	-15.80464
392.38	60.06984
392.594	-9.48295
392.808	17.91356
393.022	-15.80464
393.236	-1.05368
393.449	-3.16104
393.663	24.2364
393.877	7.37596
394.091	24.2364
394.305	-11.5902
394.518	-79.00925
394.732	-64.26353
394.946	9.48343
395.16	43.20621
395.373	55.85379
395.587	-13.69743
395.801	7.37596
396.015	-30.55439
396.228	-11.5902
396.442	-22.12611
396.656	22.12877
396.869	13.69845
397.083	13.69845
397.297	-28.44736
397.51	36.88273
397.724	3.16109
397.938	9.48343
398.151	-30.55439
398.365	3.16109
398.578	-49.51657
398.792	3.16109
399.005	34.77495
399.219	-9.48295
399.433	-64.26353
399.646	7.37596
399.86	7.37596
400.073	26.34407
400.287	49.5299
400.5	7.37596
400.714	70.61035
400.927	34.77495
401.141	-24.23321
401.354	36.88273
401.567	49.5299
401.781	-36.87534
401.994	34.77495
402.208	28.45175
402.421	-26.3403
402.635	7.37596
402.848	15.80599
403.061	55.85379
403.275	-15.80464
403.488	-17.91182
403.701	-3.16104
403.915	-38.98228
404.128	-9.48295
404.341	-49.51657
404.555	20.02115
404.768	32.66719
404.981	-97.96616
405.195	70.61035
405.408	5.26851
405.621	-13.69743
405.834	17.91356
406.048	-11.5902
406.261	45.31408
406.474	-13.69743
406.687	76.93493
406.9	3.16109
407.114	-66.37014
407.327	-41.08919
407.54	-5.26836
407.753	-9.48295
407.966	47.42198
408.179	24.2364
408.392	-116.92096
408.605	-26.3403
408.819	70.61035
409.032	11.59093
409.245	66.39408
409.458	-3.16104
409.671	17.91356
409.884	24.2364
410.097	-43.19607
410.31	34.77495
410.523	7.37596
410.736	-26.3403
410.949	-5.26836
411.162	66.39408
411.375	15.80599
411.588	17.91356
411.801	-43.19607
412.014	49.5299
412.227	24.2364
412.44	-9.48295
412.653	-22.12611
412.865	-70.58328
413.078	-13.69743
413.291	-79.00925
413.504	22.12877
413.717	7.37596
413.93	47.42198
414.143	47.42198
414.356	-1.05368
414.568	41.09836
414.781	-60.05024
414.994	45.31408
415.207	24.2364
415.42	41.09836
415.632	45.31408
415.845	15.80599
416.058	49.5299
416.271	28.45175
416.483	32.66719
416.696	-7.37567
416.909	53.7458
417.121	11.59093
417.334	-30.55439
417.547	41.09836
417.759	57.9618
417.972	-34.76838
418.185	-43.19607
418.397	-97.96616
418.61	-26.3403
418.823	30.55946
419.035	43.20621
419.248	49.5299
419.46	32.66719
419.673	-5.26836
419.885	15.80599
420.098	-68.47672
420.311	11.59093
420.523	-15.80464
420.736	-68.47672
420.948	-5.26836
421.161	-62.1569
421.373	60.06984
421.586	66.39408
421.798	15.80599
422.01	-91.64742
422.223	47.42198
422.435	-13.69743
422.648	-66.37014
422.86	-1.05368
423.073	-32.6614
423.285	3.16109
423.497	-34.76838
423.71	-15.80464
423.922	-1.05368
424.134	1.05369
424.347	-26.3403
424.559	95.90989
424.771	-9.48295
424.984	-34.76838
425.196	-34.76838
425.408	3.16109
425.621	-38.98228
425.833	11.59093
426.045	7.37596
426.257	36.88273
426.47	-1.05368
426.682	-11.5902
426.894	28.45175
427.106	51.63784
427.318	-32.6614
427.531	15.80599
427.743	28.45175
427.955	-43.19607
428.167	-11.5902
428.379	20.02115
428.591	70.61035
428.804	-68.47672
429.016	-43.19607
429.228	-1.05368
429.44	-36.87534
429.652	7.37596
429.864	-22.12611
430.076	-7.37567
430.288	-66.37014
430.5	-41.08919
430.712	-26.3403
430.924	68.5022
431.136	28.45175
431.348	-26.3403
431.56	62.17789
431.772	-26.3403
431.984	57.9618
432.196	-3.16104
432.408	7.37596
432.62	3.16109
432.832	28.45175
433.044	-60.05024
433.256	17.91356
433.468	-9.48295
433.679	-55.83685
433.891	7.37596
434.103	-60.05024
434.315	62.17789
434.527	15.80599
434.739	-60.05024
434.95	-41.08919
435.162	20.02115
435.374	32.66719
435.586	72.71852
435.798	-9.48295
436.009	3.16109
436.221	-17.91182
436.433	7.37596
436.645	22.12877
436.856	93.80147
437.068	15.80599
437.28	-85.32845
437.491	22.12877
437.703	-11.5902
437.915	15.80599
438.126	83.25972
438.338	36.88273
438.55	38.99053
438.761	-13.69743
438.973	85.36802
439.184	-30.55439
439.396	-49.51657
439.608	-5.26836
439.819	-51.62336
440.031	-26.3403
440.242	26.34407
440.454	1.05369
440.665	36.88273
440.877	-76.90279
441.088	34.77495
441.3	47.42198
441.511	15.80599
441.723	-49.51657
441.934	-15.80464
442.146	-9.48295
442.357	-13.69743
442.569	20.02115
442.78	-17.91182
442.991	83.25972
443.203	-9.48295
443.414	36.88273
443.626	-22.12611
443.837	-43.19607
444.048	-17.91182
444.26	116.99528
444.471	7.37596
444.682	11.59093
444.894	-60.05024
445.105	1.05369
445.316	-32.6614
445.528	7.37596
445.739	20.02115
445.95	-47.40976
446.161	-15.80464
446.373	-51.62336
446.584	53.7458
446.795	15.80599
447.006	74.82672
447.217	-30.55439
447.429	36.88273
447.64	11.59093
447.851	-32.6614
448.062	-85.32845
448.273	-38.98228
448.484	45.31408
448.695	-51.62336
448.907	-20.01897
449.118	3.16109
449.329	-3.16104
449.54	-53.73012
449.751	53.7458
449.962	-9.48295
450.173	-13.69743
450.384	-32.6614
450.595	32.66719
450.806	26.34407
451.017	62.17789
451.228	-13.69743
451.439	-9.48295
451.65	34.77495
451.861	-51.62336
452.072	-53.73012
452.283	-5.26836
452.494	-85.32845
452.705	28.45175
452.915	47.42198
453.126	47.42198
453.337	13.69845
453.548	-76.90279
453.759	-38.98228
453.97	-32.6614
454.181	30.55946
454.391	20.02115
454.602	64.28597
454.813	-72.68981
455.024	7.37596
455.235	-1.05368
455.445	41.09836
455.656	17.91356
455.867	-9.48295
456.078	-5.26836
456.288	-34.76838
456.499	49.5299
456.71	-5.26836
456.921	43.20621
457.131	-26.3403
457.342	64.28597
457.553	-41.08919
457.763	-34.76838
457.974	-15.80464
458.184	49.5299
458.395	74.82672
458.606	24.2364
458.816	-5.26836
459.027	-17.91182
459.237	24.2364
459.448	41.09836
459.659	-1.05368
459.869	57.9618
460.08	-5.26836
460.29	9.48343
460.501	-43.19607
460.711	55.85379
460.922	-34.76838
461.132	-28.44736
461.343	32.66719
461.553	79.04317
461.764	-36.87534
461.974	1.05369
462.184	13.69845
462.395	3.16109
462.605	-68.47672
462.816	32.66719
463.026	26.34407
463.236	-28.44736
463.447	-7.37567
463.657	-55.83685
463.867	13.69845
464.078	9.48343
464.288	-28.44736
464.498	-1.05368
464.709	-1.05368
464.919	1.05369
465.129	32.66719
465.339	76.93493
465.55	3.16109
465.76	-64.26353
465.97	13.69845
466.18	-57.94356
466.391	30.55946
466.601	-1.05368
466.811	53.7458
467.021	49.5299
467.231	51.63784
467.441	-7.37567
467.651	-15.80464
467.862	-60.05024
468.072	-70.58328
468.282	-13.69743
468.492	24.2364
468.702	-34.76838
468.912	-24.23321
469.122	-17.91182
469.332	-20.01897
469.542	34.77495
469.752	-34.76838
469.962	95.90989
470.172	-11.5902
470.382	-49.51657
470.592	-17.91182
470.802	7.37596
471.012	11.59093
471.222	66.39408
471.432	-43.19607
471.642	-17.91182
471.852	-45.30293
472.062	-22.12611
472.272	24.2364
472.482	-43.19607
472.691	-28.44736
472.901	11.59093
473.111	7.37596
473.321	-1.05368
473.531	-36.87534
473.741	34.77495
473.95	-26.3403
474.16	7.37596
474.37	45.31408
474.58	-51.62336
474.79	-26.3403
474.999	7.37596
475.209	-1.05368
475.419	-72.68981
475.628	32.66719
475.838	-38.98228
476.048	-24.23321
476.258	-47.40976
476.467	-60.05024
476.677	-17.91182
476.886	-34.76838
477.096	53.7458
477.306	24.2364
477.515	41.09836
477.725	24.2364
477.935	-32.6614
478.144	9.48343
478.354	-3.16104
478.563	-5.26836
478.773	-11.5902
478.982	-15.80464
479.192	-22.12611
479.401	-15.80464
479.611	9.48343
479.82	-28.44736
480.03	45.31408
480.239	-17.91182
480.449	76.93493
480.658	-26.3403
480.868	-22.12611
481.077	-34.76838
481.287	1.05369
481.496	15.80599
481.705	-15.80464
481.915	-22.12611
482.124	11.59093
482.333	74.82672
482.543	-7.37567
482.752	7.37596
482.961	7.37596
483.171	41.09836
483.38	32.66719
483.589	-30.55439
483.799	36.88273
484.008	20.02115
484.217	49.5299
484.426	20.02115
484.636	17.91356
484.845	-57.94356
485.054	32.66719
485.263	-32.6614
485.472	-7.37567
485.682	-36.87534
485.891	-74.79631
486.1	-15.80464
486.309	-17.91182
486.518	-43.19607
486.727	47.42198
486.936	43.20621
487.146	26.34407
487.355	-13.69743
487.564	-1.05368
487.773	-22.12611
487.982	-9.48295
488.191	-55.83685
488.4	3.16109
488.609	-34.76838
488.818	79.04317
489.027	-32.6614
489.236	-62.1569
489.445	-34.76838
489.654	20.02115
489.863	-26.3403
490.072	36.88273
490.281	-83.22208
490.49	-60.05024
490.698	68.5022
490.907	11.59093
491.116	-49.51657
491.325	41.09836
491.534	-22.12611
491.743	-30.55439
491.952	-47.40976
492.16	34.77495
492.369	87.47635
492.578	-26.3403
492.787	3.16109
492.996	32.66719
493.204	-41.08919
493.413	-1.05368
493.622	-1.05368
493.831	-51.62336
494.039	-60.05024
494.248	-49.51657
494.457	3.16109
494.665	-17.91182
494.874	-26.3403
495.083	55.85379
495.291	-47.40976
495.5	17.91356
495.709	24.2364
495.917	-15.80464
496.126	-1.05368
496.335	28.45175
496.543	-95.85994
496.752	66.39408
496.96	-9.48295
497.169	7.37596
497.377	36.88273
497.586	85.36802
497.794	-72.68981
498.003	53.7458
498.211	20.02115
498.42	-36.87534
498.628	-28.44736
498.837	11.59093
499.045	-26.3403
499.254	49.5299
499.462	30.55946
499.671	36.88273
499.879	-60.05024
500.087	26.34407
500.296	66.39408
500.504	32.66719
500.713	-47.40976
500.921	3.16109
501.129	-7.37567
501.338	1.05369
501.546	20.02115
501.754	-28.44736
501.962	-20.01897
502.171	-41.08919
502.379	-13.69743
502.587	-22.12611
502.795	-1.05368
503.004	-49.51657
503.212	-55.83685
503.42	17.91356
503.628	43.20621
503.837	-9.48295
504.045	-1.05368
504.253	-26.3403
504.461	-106.39078
504.669	17.91356
504.877	-22.12611
505.085	-7.37567
505.294	41.09836
505.502	43.20621
505.71	-30.55439
505.918	20.02115
506.126	5.26851
506.334	24.2364
506.542	11.59093
506.75	15.80599
506.958	-47.40976
507.166	20.02115
507.374	28.45175
507.582	49.5299
507.79	-26.3403
507.998	-3.16104
508.206	38.99053
508.414	-11.5902
508.622	-38.98228
508.83	-17.91182
509.037	-34.76838
509.245	49.5299
509.453	17.91356
509.661	41.09836
509.869	32.66719
510.077	-32.6614
510.285	45.31408
510.492	74.82672
510.7	22.12877
510.908	36.88273
511.116	17.91356
511.324	38.99053
511.531	-24.23321
511.739	-15.80464
511.947	7.37596
512.155	24.2364
512.362	20.02115
512.57	-49.51657
512.778	9.48343
512.985	36.88273
513.193	-26.3403
513.401	-5.26836
513.608	41.09836
513.816	15.80599
514.024	32.66719
514.231	-3.16104
514.439	32.66719
514.646	7.37596
514.854	-22.12611
515.061	-34.76838
515.269	-41.08919
515.477	-5.26836
515.684	36.88273
515.892	24.2364
516.099	57.9618
516.307	-11.5902
516.514	-51.62336
516.722	66.39408
516.929	22.12877
517.136	20.02115
517.344	72.71852
517.551	-26.3403
517.759	-22.12611
517.966	15.80599
518.173	41.09836
518.381	1.05369
518.588	74.82672
518.796	20.02115
519.003	-1.05368
519.21	20.02115
519.418	-68.47672
519.625	32.66719
519.832	17.91356
520.039	32.66719
520.247	28.45175
520.454	17.91356
520.661	70.61035
520.868	43.20621
521.076	70.61035
521.283	-17.91182
521.49	11.59093
521.697	1.05369
521.904	-34.76838
522.112	17.91356
522.319	47.42198
522.526	17.91356
522.733	32.66719
522.94	7.37596
523.147	30.55946
523.354	-11.5902
523.561	70.61035
523.768	-51.62336
523.975	26.34407
524.183	7.37596
524.39	-15.80464
524.597	-9.48295
524.804	34.77495
525.011	34.77495
525.218	-9.48295
525.425	9.48343
525.632	34.77495
525.838	26.34407
526.045	3.16109
526.252	-51.62336
526.459	9.48343
526.666	32.66719
526.873	-7.37567
527.08	-7.37567
527.287	-20.01897
527.494	20.02115
527.701	-32.6614
527.907	-5.26836
528.114	-60.05024
528.321	30.55946
528.528	-1.05368
528.735	7.37596
528.941	-1.05368
529.148	-26.3403
529.355	-1.05368
529.562	91.69308
529.768	-24.23321
529.975	-17.91182
530.182	-72.68981
530.388	34.77495
530.595	-79.00925
530.802	9.48343
531.008	11.59093
531.215	-30.55439
531.422	11.59093
531.628	-3.16104
531.835	-3.16104
532.042	36.88273
532.248	17.91356
532.455	11.59093
532.661	3.16109
532.868	-60.05024
533.074	3.16109
533.281	-51.62336
533.487	41.09836
533.694	-22.12611
533.9	24.2364
534.107	-22.12611
534.313	74.82672
534.52	-49.51657
534.726	91.69308
534.933	36.88273
535.139	24.2364
535.345	-47.40976
535.552	64.28597
535.758	17.91356
535.965	7.37596
536.171	15.80599
536.377	15.80599
536.584	-22.12611
536.79	-43.19607
536.996	15.80599
537.203	-3.16104
537.409	-5.26836
537.615	-15.80464
537.821	34.77495
538.028	-36.87534
538.234	51.63784
538.44	41.09836
538.646	15.80599
538.853	-68.47672
539.059	106.45231
539.265	79.04317
539.471	57.9618
539.677	26.34407
539.883	36.88273
540.09	43.20621
540.296	-3.16104
540.502	9.48343
540.708	24.2364
540.914	32.66719
541.12	57.9618
541.326	-51.62336
541.532	-41.08919
541.738	3.16109
541.944	-68.47672
542.15	-41.08919
542.356	30.55946
542.562	66.39408
542.768	26.34407
542.974	-30.55439
543.18	83.25972
543.386	-57.94356
543.592	-17.91182
543.798	49.5299
544.004	-36.87534
544.21	5.26851
544.415	57.9618
544.621	28.45175
544.827	22.12877
545.033	24.2364
545.239	57.9618
545.445	-9.48295
545.651	11.59093
545.856	-60.05024
546.062	41.09836
546.268	-34.76838
546.474	32.66719
546.679	-36.87534
546.885	-20.01897
547.091	-64.26353
547.297	-20.01897
547.502	24.2364
547.708	-3.16104
547.914	17.91356
548.119	-17.91182
548.325	-68.47672
548.531	7.37596
548.736	-60.05024
548.942	13.69845
549.147	-13.69743
549.353	-102.17852
549.559	51.63784
549.764	-43.19607
549.97	-9.48295
550.175	-30.55439
550.381	-100.07236
550.586	17.91356
550.792	20.02115
550.997	66.39408
551.203	-13.69743
551.408	-9.48295
551.614	53.7458
551.819	45.31408
552.025	-9.48295
552.23	32.66719
552.435	7.37596
552.641	-57.94356
552.846	-5.26836
553.052	-60.05024
553.257	68.5022
553.462	7.37596
553.668	1.05369
553.873	-7.37567
554.078	28.45175
554.283	22.12877
554.489	-3.16104
554.694	-76.90279
554.899	-22.12611
555.105	26.34407
555.31	-7.37567
555.515	38.99053
555.72	-15.80464
555.925	-7.37567
556.131	-30.55439
556.336	-5.26836
556.541	11.59093
556.746	-51.62336
556.951	-11.5902
557.156	-43.19607
557.361	-30.55439
557.567	28.45175
557.772	-1.05368
557.977	55.85379
558.182	-17.91182
558.387	-24.23321
558.592	66.39408
558.797	-17.91182
559.002	53.7458
559.207	-9.48295
559.412	-1.05368
559.617	-3.16104
559.822	-28.44736
560.027	-34.76838
560.232	-24.23321
560.437	38.99053
560.642	-1.05368
560.847	-36.87534
561.051	-22.12611
561.256	-34.76838
561.461	-1.05368
561.666	41.09836
561.871	-43.19607
562.076	-93.7537
562.281	-83.22208
562.485	51.63784
562.69	24.2364
562.895	-7.37567
563.1	-22.12611
563.305	-3.16104
563.509	7.37596
563.714	11.59093
563.919	-64.26353
564.123	-11.5902
564.328	-36.87534
564.533	3.16109
564.737	-26.3403
564.942	3.16109
565.147	30.55946
565.351	-17.91182
565.556	3.16109
565.761	-24.23321
565.965	83.25972
566.17	62.17789
566.374	-1.05368
566.579	-32.6614
566.784	-17.91182
566.988	-20.01897
567.193	15.80599
567.397	17.91356
567.602	-17.91182
567.806	-30.55439
568.011	-64.26353
568.215	-68.47672
568.42	-11.5902
568.624	3.16109
568.828	-47.40976
569.033	-34.76838
569.237	36.88273
569.442	-24.23321
569.646	15.80599
569.85	-3.16104
570.055	-9.48295
570.259	24.2364
570.463	-72.68981
570.668	-53.73012
570.872	-13.69743
571.076	-30.55439
571.281	-5.26836
571.485	-32.6614
571.689	-57.94356
571.893	-13.69743
572.098	-15.80464
572.302	30.55946
572.506	-24.23321
572.71	-7.37567
572.914	28.45175
573.119	-1.05368
573.323	-34.76838
573.527	-9.48295
573.731	-47.40976
573.935	24.2364
574.139	-51.62336
574.343	15.80599
574.547	-24.23321
574.751	15.80599
574.955	-49.51657
575.159	60.06984
575.364	5.26851
575.568	-28.44736
575.772	-34.76838
575.976	17.91356
576.18	3.16109
576.383	-47.40976
576.587	7.37596
576.791	-5.26836
576.995	-28.44736
577.199	49.5299
577.403	-43.19607
577.607	-55.83685
577.811	-49.51657
578.015	62.17789
578.219	3.16109
578.422	72.71852
578.626	1.05369
578.83	-7.37567
579.034	-24.23321
579.238	11.59093
579.442	26.34407
579.645	17.91356
579.849	55.85379
580.053	-26.3403
580.257	36.88273
580.46	32.66719
580.664	17.91356
580.868	7.37596
581.071	41.09836
581.275	-3.16104
581.479	24.2364
581.682	106.45231
581.886	55.85379
582.09	-7.37567
582.293	-76.90279
582.497	-3.16104
582.7	-20.01897
582.904	-34.76838
583.107	17.91356
583.311	-60.05024
583.515	-22.12611
583.718	-60.05024
583.922	-7.37567
584.125	32.66719
584.329	-15.80464
584.532	38.99053
584.735	-45.30293
584.939	-34.76838
585.142	11.59093
585.346	7.37596
585.549	34.77495
585.753	49.5299
585.956	13.69845
586.159	5.26851
586.363	83.25972
586.566	-5.26836
586.769	9.48343
586.973	57.9618
587.176	32.66719
587.379	-17.91182
587.582	-20.01897
587.786	34.77495
587.989	70.61035
588.192	-34.76838
588.395	20.02115
588.599	60.06984
588.802	7.37596
589.005	-17.91182
589.208	15.80599
589.411	15.80599
589.615	41.09836
589.818	36.88273
590.021	5.26851
590.224	15.80599
590.427	-11.5902
590.63	-3.16104
590.833	7.37596
591.036	-53.73012
591.239	-22.12611
591.442	15.80599
591.645	-1.05368
591.848	20.02115
592.051	-64.26353
592.254	-17.91182
592.457	-74.79631
592.66	15.80599
592.863	32.66719
593.066	-57.94356
593.269	-32.6614
593.472	-9.48295
593.675	7.37596
593.878	1.05369
594.081	1.05369
594.284	24.2364
594.486	-70.58328
594.689	-20.01897
594.892	60.06984
595.095	-76.90279
595.298	7.37596
595.5	-1.05368
595.703	-81.11567
595.906	41.09836
596.109	-13.69743
596.311	43.20621
596.514	51.63784
596.717	74.82672
596.92	7.37596
597.122	104.34378
597.325	-51.62336
597.528	45.31408
597.73	7.37596
597.933	7.37596
598.136	15.80599
598.338	-1.05368
598.541	22.12877
598.743	38.99053
598.946	-9.48295
599.148	26.34407
599.351	-24.23321
599.554	28.45175
599.756	-13.69743
599.959	51.63784
600.161	-5.26836
600.363	-15.80464
600.566	-9.48295
600.768	57.9618
600.971	83.25972
601.173	24.2364
601.376	20.02115
601.578	-22.12611
601.78	-24.23321
601.983	55.85379
602.185	45.31408
602.388	-43.19607
602.59	5.26851
602.792	-34.76838
602.995	-9.48295
603.197	36.88273
603.399	-32.6614
603.601	-9.48295
603.804	-57.94356
604.006	57.9618
604.208	-24.23321
604.41	-5.26836
604.613	-3.16104
604.815	83.25972
605.017	-13.69743
605.219	9.48343
605.421	-1.05368
605.623	-22.12611
605.826	26.34407
606.028	108.56086
606.23	-47.40976
606.432	49.5299
606.634	60.06984
606.836	15.80599
607.038	32.66719
607.24	3.16109
607.442	32.66719
607.644	-60.05024
607.846	-5.26836
608.048	1.05369
608.25	-26.3403
608.452	87.47635
608.654	26.34407
608.856	-62.1569
609.058	-9.48295
609.26	28.45175
609.462	-15.80464
609.664	-26.3403
609.866	30.55946
610.067	-9.48295
610.269	-9.48295
610.471	93.80147
610.673	-51.62336
610.875	-36.87534
611.077	-38.98228
611.278	13.69845
611.48	-13.69743
611.682	24.2364
611.884	41.09836
612.085	11.59093
612.287	62.17789
612.489	22.12877
612.69	-9.48295
612.892	3.16109
613.094	-17.91182
613.295	32.66719
613.497	9.48343
613.699	47.42198
613.9	-93.7537
614.102	3.16109
614.304	30.55946
614.505	-9.48295
614.707	1.05369
614.908	-102.17852
615.11	26.34407
615.311	20.02115
615.513	-24.23321
615.714	26.34407
615.916	26.34407
616.117	11.59093
616.319	7.37596
616.52	91.69308
616.722	11.59093
616.923	49.5299
617.124	-11.5902
617.326	30.55946
617.527	-26.3403
617.729	-17.91182
617.93	-57.94356
618.131	41.09836
618.333	-9.48295
618.534	-34.76838
618.735	-1.05368
618.937	-93.7537
619.138	15.80599
619.339	55.85379
619.54	-17.91182
619.742	-20.01897
619.943	20.02115
620.144	20.02115
620.345	3.16109
620.546	24.2364
620.748	28.45175
620.949	15.80599
621.15	26.34407
621.351	-45.30293
621.552	47.42198
621.753	55.85379
621.954	-30.55439
622.155	-43.19607
622.356	51.63784
622.558	-51.62336
622.759	49.5299
622.96	-66.37014
623.161	28.45175
623.362	-15.80464
623.563	9.48343
623.764	70.61035
623.965	9.48343
624.166	-38.98228
624.366	-11.5902
624.567	-47.40976
624.768	1.05369
624.969	-68.47672
625.17	9.48343
625.371	45.31408
625.572	-30.55439
625.773	-13.69743
625.973	74.82672
626.174	74.82672
626.375	17.91356
626.576	68.5022
626.777	28.45175
626.977	-5.26836
627.178	-100.07236
627.379	-49.51657
627.58	-26.3403
627.78	-24.23321
627.981	-5.26836
628.182	-22.12611
628.382	-11.5902
628.583	9.48343
628.784	36.88273
628.984	24.2364
629.185	-28.44736
629.386	-55.83685
629.586	-7.37567
629.787	5.26851
629.987	5.26851
630.188	20.02115
630.388	-102.17852
630.589	-3.16104
630.79	45.31408
630.99	5.26851
631.191	-5.26836
631.391	15.80599
631.591	-70.58328
631.792	104.34378
631.992	13.69845
632.193	-5.26836
632.393	-13.69743
632.594	-11.5902
632.794	1.05369
632.994	-7.37567
633.195	-15.80464
633.395	87.47635
633.595	53.7458
633.796	26.34407
633.996	-45.30293
634.196	22.12877
634.397	-43.19607
634.597	-3.16104
634.797	-51.62336
634.997	-1.05368
635.198	91.69308
635.398	53.7458
635.598	-26.3403
635.798	-9.48295
635.998	7.37596
636.199	11.59093
636.399	-17.91182
636.599	22.12877
636.799	-34.76838
636.999	7.37596
637.199	53.7458
637.399	102.23527
637.599	-3.16104
637.799	-34.76838
637.999	-30.55439
638.199	1.05369
638.399	-1.05368
638.599	30.55946
638.799	-22.12611
638.999	15.80599
639.199	9.48343
639.399	-20.01897
639.599	-7.37567
639.799	5.26851
639.999	7.37596
640.199	62.17789
640.399	68.5022
640.599	-53.73012
640.799	-64.26353
640.998	-9.48295
641.198	32.66719
641.398	-5.26836
641.598	-76.90279
641.798	-7.37567
641.997	49.5299
642.197	13.69845
642.397	20.02115
642.597	125.43005
642.796	28.45175
642.996	66.39408
643.196	-9.48295
643.395	1.05369
643.595	5.26851
643.795	-7.37567
643.994	49.5299
644.194	51.63784
644.394	-51.62336
644.593	-24.23321
644.793	-36.87534
644.992	32.66719
645.192	43.20621
645.392	-5.26836
645.591	5.26851
645.791	30.55946
645.99	-70.58328
646.19	-51.62336
646.389	-51.62336
646.589	45.31408
646.788	-38.98228
646.987	41.09836
647.187	-13.69743
647.386	17.91356
647.586	36.88273
647.785	-7.37567
647.984	43.20621
648.184	53.7458
648.383	49.5299
648.582	49.5299
648.782	24.2364
648.981	30.55946
649.18	-47.40976
649.38	-7.37567
649.579	-60.05024
649.778	-17.91182
649.977	1.05369
650.177	41.09836
650.376	-5.26836
650.575	-74.79631
650.774	-3.16104
650.973	20.02115
651.173	9.48343
651.372	43.20621
651.571	-32.6614
651.77	53.7458
651.969	-3.16104
652.168	43.20621
652.367	36.88273
652.566	-30.55439
652.765	15.80599
652.964	41.09836
653.163	-15.80464
653.362	41.09836
653.561	-24.23321
653.76	-51.62336
653.959	-1.05368
654.158	38.99053
654.357	-15.80464
654.556	-41.08919
654.755	-9.48295
654.954	32.66719
655.153	32.66719
655.352	-1.05368
655.551	-60.05024
655.749	-17.91182
655.948	-43.19607
656.147	15.80599
656.346	-17.91182
656.545	32.66719
656.743	-22.12611
656.942	9.48343
657.141	-34.76838
657.34	91.69308
657.538	-41.08919
657.737	41.09836
657.936	38.99053
658.135	41.09836
658.333	-7.37567
658.532	13.69845
658.731	5.26851
658.929	36.88273
659.128	-28.44736
659.326	32.66719
659.525	-43.19607
659.724	-34.76838
659.922	62.17789
660.121	34.77495
660.319	-62.1569
660.518	-9.48295
660.716	15.80599
660.915	-45.30293
661.113	-26.3403
661.312	5.26851
661.51	20.02115
661.709	3.16109
661.907	9.48343
662.105	-47.40976
662.304	-28.44736
662.502	74.82672
662.701	-43.19607
662.899	43.20621
663.097	-11.5902
663.296	-64.26353
663.494	32.66719
663.692	108.56086
663.891	-30.55439
664.089	57.9618
664.287	20.02115
664.485	3.16109
664.684	-51.62336
664.882	28.45175
665.08	1.05369
665.278	-51.62336
665.476	32.66719
665.675	7.37596
665.873	7.37596
666.071	24.2364
666.269	-106.39078
666.467	-9.48295
666.665	7.37596
666.863	-9.48295
667.061	17.91356
667.259	-1.05368
667.457	15.80599
667.655	-17.91182
667.853	-24.23321
668.051	20.02115
668.249	-26.3403
668.447	-3.16104
668.645	13.69845
668.843	66.39408
669.041	26.34407
669.239	-34.76838
669.437	-30.55439
669.635	30.55946
669.833	-11.5902
670.031	-22.12611
670.229	28.45175
670.426	22.12877
670.624	5.26851
670.822	24.2364
671.02	-41.08919
671.218	-28.44736
671.415	-57.94356
671.613	32.66719
671.811	53.7458
672.009	-22.12611
672.206	22.12877
672.404	-7.37567
672.602	32.66719
672.799	11.59093
672.997	-68.47672
673.195	32.66719
673.392	1.05369
673.59	53.7458
673.788	-60.05024
673.985	20.02115
674.183	-30.55439
674.38	45.31408
674.578	-43.19607
674.775	32.66719
674.973	-1.05368
675.17	-66.37014
675.368	-9.48295
675.565	34.77495
675.763	36.88273
675.96	1.05369
676.158	-3.16104
676.355	-28.44736
676.553	24.2364
676.75	-9.48295
676.947	-85.32845
677.145	13.69845
677.342	-17.91182
677.539	-1.05368
677.737	-22.12611
677.934	-13.69743
678.131	-41.08919
678.329	15.80599
678.526	-41.08919
678.723	24.2364
678.92	-43.19607
679.118	-7.37567
679.315	66.39408
679.512	-20.01897
679.709	-32.6614
679.906	7.37596
680.104	-17.91182
680.301	-38.98228
680.498	26.34407
680.695	-38.98228
680.892	-15.80464
681.089	-30.55439
681.286	-32.6614
681.483	24.2364
681.68	28.45175
681.877	51.63784
682.075	22.12877
682.272	22.12877
682.469	-47.40976
682.665	22.12877
682.862	-38.98228
683.059	-34.76838
683.256	3.16109
683.453	-26.3403
683.65	-3.16104
683.847	-17.91182
684.044	11.59093
684.241	11.59093
684.438	7.37596
684.635	-11.5902
684.831	-7.37567
685.028	-36.87534
685.225	89.5847
685.422	20.02115
685.619	-79.00925
685.815	64.28597
686.012	-28.44736
686.209	41.09836
686.405	53.7458
686.602	-57.94356
686.799	-5.26836
686.996	34.77495
687.192	26.34407
687.389	15.80599
687.586	17.91356
687.782	-9.48295
687.979	15.80599
688.175	49.5299
688.372	57.9618
688.568	22.12877
688.765	3.16109
688.962	28.45175
689.158	9.48343
689.355	60.06984
689.551	83.25972
689.748	-38.98228
689.944	-15.80464
690.14	34.77495
690.337	9.48343
690.533	1.05369
690.73	20.02115
690.926	26.34407
691.123	15.80599
691.319	-7.37567
691.515	57.9618
691.712	13.69845
691.908	24.2364
692.104	15.80599
692.301	1.05369
692.497	-74.79631
692.693	7.37596
692.889	1.05369
693.086	5.26851
693.282	-32.6614
693.478	-17.91182
693.674	-38.98228
693.87	-26.3403
694.067	17.91356
694.263	-76.90279
694.459	-24.23321
694.655	-38.98228
694.851	-17.91182
695.047	3.16109
695.243	5.26851
695.439	-13.69743
695.635	9.48343
695.831	30.55946
696.027	5.26851
696.224	-81.11567
696.42	-1.05368
696.615	-3.16104
696.811	41.09836
697.007	15.80599
697.203	38.99053
697.399	3.16109
697.595	-9.48295
697.791	7.37596
697.987	9.48343
698.183	51.63784
698.379	3.16109
698.575	-22.12611
698.77	15.80599
698.966	53.7458
699.162	-9.48295
699.358	30.55946
699.554	-26.3403
699.749	-17.91182
699.945	41.09836
700.141	-32.6614
700.337	-24.23321
700.532	-13.69743
700.728	7.37596
700.924	-28.44736
701.119	36.88273
701.315	-34.76838
701.511	64.28597
701.706	9.48343
701.902	-15.80464
702.097	43.20621
702.293	34.77495
702.489	-28.44736
702.684	41.09836
702.88	30.55946
703.075	-32.6614
703.271	57.9618
703.466	-7.37567
703.662	20.02115
703.857	-20.01897
704.053	-68.47672
704.248	104.34378
704.443	-36.87534
704.639	-26.3403
704.834	142.30062
705.03	-57.94356
705.225	1.05369
705.42	28.45175
705.616	-17.91182
705.811	7.37596
706.006	-34.76838
706.202	1.05369
706.397	49.5299
706.592	-66.37014
706.787	20.02115
706.983	68.5022
707.178	-41.08919
707.373	-22.12611
707.568	-20.01897
707.763	15.80599
707.959	20.02115
708.154	-34.76838
708.349	38.99053
708.544	32.66719
708.739	-1.05368
708.934	-41.08919
709.129	74.82672
709.324	62.17789
709.519	41.09836
709.714	62.17789
709.909	28.45175
710.104	28.45175
710.299	72.71852
710.494	-1.05368
710.689	26.34407
710.884	22.12877
711.079	-53.73012
711.274	79.04317
711.469	-26.3403
711.664	-30.55439
711.859	-26.3403
712.054	70.61035
712.249	-26.3403
712.443	15.80599
712.638	1.05369
712.833	24.2364
713.028	55.85379
713.223	41.09836
713.417	60.06984
713.612	53.7458
713.807	36.88273
714.002	15.80599
714.196	20.02115
714.391	49.5299
714.586	45.31408
714.78	41.09836
714.975	-22.12611
715.17	41.09836
715.364	-45.30293
715.559	57.9618
715.754	15.80599
715.948	-1.05368
716.143	95.90989
716.337	55.85379
716.532	45.31408
716.726	-34.76838
716.921	7.37596
717.115	1.05369
717.31	-17.91182
717.504	-20.01897
717.699	9.48343
717.893	32.66719
718.088	-34.76838
718.282	57.9618
718.476	34.77495
718.671	-43.19607
718.865	-11.5902
719.059	15.80599
719.254	36.88273
719.448	7.37596
719.642	-66.37014
719.837	28.45175
720.031	-1.05368
720.225	-1.05368
720.419	-34.76838
720.614	-15.80464
720.808	1.05369
721.002	-3.16104
721.196	-7.37567
721.39	-1.05368
721.585	53.7458
721.779	-30.55439
721.973	-72.68981
722.167	20.02115
722.361	79.04317
722.555	-43.19607
722.749	1.05369
722.943	-13.69743
723.137	28.45175
723.331	-11.5902
723.525	-1.05368
723.719	7.37596
723.913	-57.94356
724.107	5.26851
724.301	79.04317
724.495	9.48343
724.689	-55.83685
724.883	9.48343
725.077	-57.94356
725.271	-30.55439
725.465	-17.91182
725.659	20.02115
725.853	9.48343
726.046	3.16109
726.24	15.80599
726.434	-38.98228
726.628	57.9618
726.822	-43.19607
727.015	9.48343
727.209	-3.16104
727.403	49.5299
727.596	3.16109
727.79	15.80599
727.984	22.12877
728.177	-68.47672
728.371	32.66719
728.565	-91.64742
728.758	-26.3403
728.952	43.20621
729.146	53.7458
729.339	-13.69743
729.533	-5.26836
729.726	-30.55439
729.92	-53.73012
730.113	-41.08919
730.307	70.61035
730.5	32.66719
730.694	-5.26836
730.887	-24.23321
731.081	-9.48295
731.274	-1.05368
731.468	-66.37014
731.661	53.7458
731.854	-47.40976
732.048	36.88273
732.241	53.7458
732.435	-30.55439
732.628	-9.48295
732.821	9.48343
733.014	15.80599
733.208	36.88273
733.401	-9.48295
733.594	34.77495
733.788	-9.48295
733.981	-26.3403
734.174	28.45175
734.367	20.02115
734.56	15.80599
734.754	-55.83685
734.947	-57.94356
735.14	-60.05024
735.333	9.48343
735.526	-34.76838
735.719	-24.23321
735.912	-7.37567
736.105	57.9618
736.298	-66.37014
736.491	5.26851
736.684	-28.44736
736.877	32.66719
737.07	-30.55439
737.263	36.88273
737.456	-1.05368
737.649	34.77495
737.842	-32.6614
738.035	-26.3403
738.228	70.61035
738.421	30.55946
738.614	13.69845
738.807	41.09836
739	26.34407
739.192	38.99053
739.385	15.80599
739.578	28.45175
739.771	-20.01897
739.964	7.37596
740.156	-28.44736
740.349	30.55946
740.542	81.15143
740.735	51.63784
740.927	-49.51657
741.12	-9.48295
741.313	7.37596
741.505	-20.01897
741.698	15.80599
741.891	-43.19607
742.083	-24.23321
742.276	41.09836
742.468	-45.30293
742.661	-41.08919
742.854	49.5299
743.046	-32.6614
743.239	7.37596
743.431	32.66719
743.624	-36.87534
743.816	-5.26836
744.009	-55.83685
744.201	3.16109
744.393	-30.55439
744.586	45.31408
744.778	20.02115
744.971	-51.62336
745.163	-15.80464
745.355	7.37596
745.548	-57.94356
745.74	-17.91182
745.932	-57.94356
746.125	38.99053
746.317	49.5299
746.509	83.25972
746.702	85.36802
746.894	17.91356
747.086	-11.5902
747.278	13.69845
747.471	7.37596
747.663	83.25972
747.855	22.12877
748.047	60.06984
748.239	-28.44736
748.431	-51.62336
748.623	-22.12611
748.815	43.20621
749.008	-1.05368
749.2	11.59093
749.392	-5.26836
749.584	51.63784
749.776	17.91356
749.968	20.02115
750.16	24.2364
750.352	-26.3403
750.544	-3.16104
750.736	-9.48295
750.928	-7.37567
751.12	22.12877
751.311	32.66719
751.503	83.25972
751.695	-13.69743
751.887	-87.4348
752.079	-7.37567
752.271	-24.23321
752.463	38.99053
752.654	15.80599
752.846	38.99053
753.038	62.17789
753.23	-1.05368
753.421	15.80599
753.613	-32.6614
753.805	-7.37567
753.997	-1.05368
754.188	-1.05368
754.38	-11.5902
754.572	9.48343
754.763	-49.51657
754.955	60.06984
755.146	9.48343
755.338	17.91356
755.53	-74.79631
755.721	3.16109
755.913	11.59093
756.104	1.05369
756.296	-43.19607
756.487	-1.05368
756.679	-34.76838
756.87	-87.4348
757.062	-24.23321
757.253	-47.40976
757.445	-17.91182
757.636	-1.05368
757.827	17.91356
758.019	51.63784
758.21	20.02115
758.401	17.91356
758.593	-15.80464
758.784	45.31408
758.975	-9.48295
759.167	1.05369
759.358	15.80599
759.549	13.69845
759.74	36.88273
759.932	62.17789
760.123	32.66719
760.314	-17.91182
760.505	41.09836
760.696	5.26851
760.888	-32.6614
761.079	-81.11567
761.27	66.39408
761.461	-5.26836
761.652	112.77803
761.843	-30.55439
762.034	26.34407
762.225	-34.76838
762.416	-13.69743
762.607	15.80599
762.798	34.77495
762.989	-5.26836
763.18	-28.44736
763.371	62.17789
763.562	-1.05368
763.753	24.2364
763.944	28.45175
764.135	62.17789
764.326	47.42198
764.517	5.26851
764.708	-5.26836
764.899	11.59093
765.089	15.80599
765.28	7.37596
765.471	57.9618
765.662	-5.26836
765.853	-11.5902
766.043	15.80599
766.234	-43.19607
766.425	32.66719
766.615	-68.47672
766.806	9.48343
766.997	34.77495
767.187	-9.48295
767.378	7.37596
767.569	-17.91182
767.759	20.02115
767.95	9.48343
768.141	-28.44736
768.331	-74.79631
768.522	-13.69743
768.712	32.66719
768.903	-5.26836
769.093	1.05369
769.284	7.37596
769.474	5.26851
769.665	24.2364
769.855	55.85379
770.046	24.2364
770.236	13.69845
770.426	-1.05368
770.617	-24.23321
770.807	-34.76838
770.998	1.05369
771.188	49.5299
771.378	-11.5902
771.569	3.16109
771.759	41.09836
771.949	62.17789
772.139	-26.3403
772.33	9.48343
772.52	-7.37567
772.71	-53.73012
772.9	-5.26836
773.09	13.69845
773.281	70.61035
773.471	24.2364
773.661	-20.01897
773.851	11.59093
774.041	-106.39078
774.231	17.91356
774.421	24.2364
774.611	45.31408
774.802	11.59093
774.992	7.37596
775.182	60.06984
775.372	43.20621
775.562	24.2364
775.752	-32.6614
775.942	55.85379
776.131	32.66719
776.321	49.5299
776.511	-41.08919
776.701	20.02115
776.891	28.45175
777.081	-22.12611
777.271	3.16109
777.461	5.26851
777.651	36.88273
777.84	-20.01897
778.03	45.31408
778.22	7.37596
778.41	-38.98228
778.599	-1.05368
778.789	36.88273
778.979	15.80599
779.169	41.09836
779.358	142.30062
779.548	30.55946
779.738	30.55946
779.927	24.2364
780.117	60.06984
780.307	34.77495
780.496	47.42198
780.686	-7.37567
780.875	9.48343
781.065	7.37596
781.254	-15.80464
781.444	15.80599
781.633	-24.23321
781.823	30.55946
782.012	-43.19607
782.202	28.45175
782.391	-15.80464
782.581	30.55946
782.77	-66.37014
782.96	-53.73012
783.149	1.05369
783.338	11.59093
783.528	28.45175
783.717	28.45175
783.906	28.45175
784.096	11.59093
784.285	-26.3403
784.474	-66.37014
784.663	36.88273
784.853	-26.3403
785.042	32.66719
785.231	45.31408
785.42	102.23527
785.61	49.5299
785.799	20.02115
785.988	-3.16104
786.177	-1.05368
786.366	-68.47672
786.555	62.17789
786.744	20.02115
786.933	-51.62336
787.122	-3.16104
787.312	-9.48295
787.501	34.77495
787.69	28.45175
787.879	70.61035
788.068	1.05369
788.257	43.20621
788.445	15.80599
788.634	-3.16104
788.823	9.48343
789.012	32.66719
789.201	-43.19607
789.39	55.85379
789.579	-85.32845
789.768	-15.80464
789.957	30.55946
790.145	-51.62336
790.334	70.61035
790.523	26.34407
790.712	7.37596
790.9	-28.44736
791.089	41.09836
791.278	-15.80464
791.467	68.5022
791.655	-26.3403
791.844	-74.79631
792.033	-36.87534
792.221	-26.3403
792.41	1.05369
792.599	-49.51657
792.787	3.16109
792.976	17.91356
793.164	7.37596
793.353	-5.26836
793.541	17.91356
793.73	17.91356
793.918	-9.48295
794.107	53.7458
794.295	34.77495
794.484	-26.3403
794.672	-15.80464
794.861	28.45175
795.049	1.05369
795.238	-17.91182
795.426	-45.30293
795.614	15.80599
795.803	-106.39078
795.991	-15.80464
796.179	1.05369
796.368	-15.80464
796.556	15.80599
796.744	-47.40976
796.932	32.66719
797.121	-60.05024
797.309	24.2364
797.497	1.05369
797.685	-1.05368
797.874	26.34407
798.062	-64.26353
798.25	102.23527
798.438	-7.37567
798.626	32.66719
798.814	51.63784
799.002	-5.26836
799.19	-13.69743
799.378	15.80599
799.566	108.56086
799.755	3.16109
799.943	36.88273
800.131	36.88273
800.318	7.37596
800.506	3.16109
800.694	28.45175
800.882	24.2364
801.07	24.2364
801.258	66.39408
801.446	-5.26836
801.634	112.77803
801.822	-32.6614
802.01	38.99053
802.197	-41.08919
802.385	-1.05368
802.573	-24.23321
802.761	24.2364
802.949	-17.91182
803.136	24.2364
803.324	3.16109
803.512	-26.3403
803.699	-74.79631
803.887	-22.12611
804.075	7.37596
804.262	-28.44736
804.45	13.69845
804.638	11.59093
804.825	5.26851
805.013	-3.16104
805.201	-9.48295
805.388	28.45175
805.576	-1.05368
805.763	22.12877
805.951	-7.37567
806.138	15.80599
806.326	-74.79631
806.513	7.37596
806.701	-3.16104
806.888	-3.16104
807.075	-66.37014
807.263	28.45175
807.45	41.09836
807.638	-85.32845
807.825	15.80599
808.012	-51.62336
808.2	32.66719
808.387	-11.5902
808.574	-22.12611
808.761	49.5299
808.949	-15.80464
809.136	45.31408
809.323	51.63784
809.51	-1.05368
809.698	-7.37567
809.885	20.02115
810.072	32.66719
810.259	11.59093
810.446	3.16109
810.633	51.63784
810.82	15.80599
811.008	7.37596
811.195	-36.87534
811.382	32.66719
811.569	34.77495
811.756	-7.37567
811.943	20.02115
812.13	3.16109
812.317	41.09836
812.504	60.06984
812.691	7.37596
812.878	36.88273
813.064	-1.05368
813.251	76.93493
813.438	-47.40976
813.625	3.16109
813.812	32.66719
813.999	-1.05368
814.186	9.48343
814.372	34.77495
814.559	9.48343
814.746	-11.5902
814.933	-43.19607
815.12	79.04317
815.306	-38.98228
815.493	-32.6614
815.68	57.9618
815.866	-30.55439
816.053	1.05369
816.24	-7.37567
816.426	51.63784
816.613	15.80599
816.799	-32.6614
816.986	9.48343
817.173	-26.3403
817.359	7.37596
817.546	15.80599
817.732	15.80599
817.919	-9.48295
818.105	-24.23321
818.292	-30.55439
818.478	-32.6614
818.665	7.37596
818.851	66.39408
819.037	-32.6614
819.224	13.69845
819.41	-11.5902
819.597	49.5299
819.783	-9.48295
819.969	-68.47672
820.156	41.09836
820.342	17.91356
820.528	11.59093
820.714	41.09836
820.901	17.91356
821.087	13.69845
821.273	55.85379
821.459	20.02115
821.646	66.39408
821.832	-34.76838
822.018	43.20621
822.204	-11.5902
822.39	-102.17852
822.576	74.82672
822.762	-43.19607
822.948	-11.5902
823.134	-5.26836
823.32	45.31408
823.507	45.31408
823.693	20.02115
823.879	-9.48295
824.065	3.16109
824.25	32.66719
824.436	57.9618
824.622	5.26851
824.808	-9.48295
824.994	51.63784
825.18	41.09836
825.366	-1.05368
825.552	-51.62336
825.738	-36.87534
825.923	70.61035
826.109	15.80599
826.295	57.9618
826.481	-3.16104
826.667	-24.23321
826.852	32.66719
827.038	-13.69743
827.224	-24.23321
827.409	51.63784
827.595	9.48343
827.781	7.37596
827.966	-17.91182
828.152	-74.79631
828.338	13.69845
828.523	-7.37567
828.709	24.2364
828.894	-34.76838
829.08	9.48343
829.266	-36.87534
829.451	-55.83685
829.637	-5.26836
829.822	45.31408
830.008	32.66719
830.193	17.91356
830.378	45.31408
830.564	20.02115
830.749	3.16109
830.935	5.26851
831.12	-49.51657
831.305	-72.68981
831.491	-38.98228
831.676	24.2364
831.861	-15.80464
832.047	-30.55439
832.232	9.48343
832.417	57.9618
832.602	34.77495
832.788	62.17789
832.973	43.20621
833.158	5.26851
833.343	-1.05368
833.528	5.26851
833.714	68.5022
833.899	13.69845
834.084	-24.23321
834.269	26.34407
834.454	74.82672
834.639	28.45175
834.824	17.91356
835.009	1.05369
835.194	15.80599
835.379	3.16109
835.564	7.37596
835.749	-57.94356
835.934	-5.26836
836.119	-30.55439
836.304	43.20621
836.489	3.16109
836.674	17.91356
836.859	-7.37567
837.044	9.48343
837.228	-17.91182
837.413	41.09836
837.598	74.82672
837.783	41.09836
837.968	-53.73012
838.152	-7.37567
838.337	-7.37567
838.522	-43.19607
838.707	41.09836
838.891	3.16109
839.076	15.80599
839.261	-5.26836
839.445	66.39408
839.63	-22.12611
839.815	-1.05368
839.999	13.69845
840.184	-34.76838
840.368	51.63784
840.553	-15.80464
840.737	-13.69743
840.922	3.16109
841.106	1.05369
841.291	11.59093
841.475	17.91356
841.66	9.48343
841.844	49.5299
842.029	83.25972
842.213	53.7458
842.397	-68.47672
842.582	9.48343
842.766	-43.19607
842.951	53.7458
843.135	13.69845
843.319	34.77495
843.504	5.26851
843.688	-57.94356
843.872	3.16109
844.056	-30.55439
844.241	9.48343
844.425	89.5847
844.609	-22.12611
844.793	-26.3403
844.977	-9.48295
845.161	41.09836
845.346	-1.05368
845.53	-66.37014
845.714	38.99053
845.898	7.37596
846.082	-89.54113
846.266	64.28597
846.45	-5.26836
846.634	-20.01897
846.818	15.80599
847.002	-79.00925
847.186	15.80599
847.37	24.2364
847.554	-57.94356
847.738	-3.16104
847.922	9.48343
848.106	9.48343
848.29	-13.69743
848.473	-32.6614
848.657	-66.37014
848.841	-13.69743
849.025	-9.48295
849.209	-13.69743
849.392	22.12877
849.576	41.09836
849.76	34.77495
849.944	-15.80464
850.127	-85.32845
850.311	7.37596
850.495	26.34407
850.678	7.37596
850.862	13.69845
851.046	7.37596
851.229	-1.05368
851.413	-11.5902
851.596	45.31408
851.78	15.80599
851.964	7.37596
852.147	-43.19607
852.331	-36.87534
852.514	7.37596
852.698	26.34407
852.881	24.2364
853.065	89.5847
853.248	24.2364
853.431	-57.94356
853.615	30.55946
853.798	-30.55439
853.982	-26.3403
854.165	20.02115
854.348	22.12877
854.532	1.05369
854.715	-43.19607
854.898	24.2364
855.081	-28.44736
855.265	3.16109
855.448	43.20621
855.631	-28.44736
855.814	5.26851
855.997	49.5299
856.181	-51.62336
856.364	5.26851
856.547	-1.05368
856.73	38.99053
856.913	32.66719
857.096	-15.80464
857.279	74.82672
857.462	43.20621
857.645	-3.16104
857.828	-68.47672
858.011	144.40954
858.194	17.91356
858.377	36.88273
858.56	-47.40976
858.743	11.59093
858.926	-1.05368
859.109	-15.80464
859.292	-41.08919
859.475	-17.91182
859.658	15.80599
859.841	45.31408
860.023	-53.73012
860.206	62.17789
860.389	-53.73012
860.572	-36.87534
860.755	-3.16104
860.937	-22.12611
861.12	-49.51657
861.303	13.69845
861.486	28.45175
861.668	1.05369
861.851	-22.12611
862.034	24.2364
862.216	43.20621
862.399	13.69845
862.581	53.7458
862.764	45.31408
862.947	20.02115
863.129	-15.80464
863.312	-9.48295
863.494	32.66719
863.677	-85.32845
863.859	45.31408
864.042	34.77495
864.224	-7.37567
864.406	-24.23321
864.589	32.66719
864.771	-36.87534
864.954	5.26851
865.136	-30.55439
865.318	38.99053
865.501	-13.69743
865.683	9.48343
865.865	-9.48295
866.048	26.34407
866.23	-13.69743
866.412	36.88273
866.594	95.90989
866.777	-13.69743
866.959	76.93493
867.141	1.05369
867.323	41.09836
867.505	-13.69743
867.687	57.9618
867.869	7.37596
868.052	22.12877
868.234	100.12679
868.416	9.48343
868.598	-55.83685
868.78	-26.3403
868.962	41.09836
869.144	-68.47672
869.326	-85.32845
869.508	9.48343
869.69	17.91356
869.872	74.82672
870.054	32.66719
870.236	17.91356
870.417	28.45175
870.599	24.2364
870.781	28.45175
870.963	68.5022
871.145	20.02115
871.327	43.20621
871.508	64.28597
871.69	1.05369
871.872	66.39408
872.054	-76.90279
872.235	41.09836
872.417	-64.26353
872.599	-20.01897
872.78	95.90989
872.962	38.99053
873.144	66.39408
873.325	20.02115
873.507	9.48343
873.689	30.55946
873.87	-74.79631
874.052	9.48343
874.233	-41.08919
874.415	-24.23321
874.596	41.09836
874.778	-43.19607
874.959	28.45175
875.141	41.09836
875.322	-32.6614
875.503	41.09836
875.685	-15.80464
875.866	24.2364
876.048	17.91356
876.229	9.48343
876.41	-9.48295
876.592	7.37596
876.773	49.5299
876.954	-68.47672
877.136	49.5299
877.317	36.88273
877.498	20.02115
877.679	5.26851
877.86	-5.26836
878.042	7.37596
878.223	45.31408
878.404	45.31408
878.585	-5.26836
878.766	45.31408
878.947	-36.87534
879.128	53.7458
879.309	-51.62336
879.49	5.26851
879.672	60.06984
879.853	-5.26836
880.034	34.77495
880.215	-5.26836
880.396	22.12877
880.576	13.69845
880.757	-11.5902
880.938	-15.80464
881.119	20.02115
881.3	-1.05368
881.481	-17.91182
881.662	-41.08919
881.843	-13.69743
882.023	-26.3403
882.204	-13.69743
882.385	45.31408
882.566	28.45175
882.747	41.09836
882.927	-24.23321
883.108	-68.47672
883.289	34.77495
883.469	-1.05368
883.65	15.80599
883.831	-60.05024
884.011	57.9618
884.192	-57.94356
884.373	-38.98228
884.553	-1.05368
884.734	7.37596
884.914	24.2364
885.095	47.42198
885.275	-9.48295
885.456	22.12877
885.636	24.2364
885.817	-26.3403
885.997	15.80599
886.178	66.39408
886.358	15.80599
886.538	-36.87534
886.719	17.91356
886.899	-34.76838
887.08	-15.80464
887.26	7.37596
887.44	22.12877
887.621	34.77495
887.801	-20.01897
887.981	-17.91182
888.161	11.59093
888.342	43.20621
888.522	38.99053
888.702	66.39408
888.882	53.7458
889.062	-49.51657
889.242	-17.91182
889.423	-64.26353
889.603	15.80599
889.783	45.31408
889.963	38.99053
890.143	53.7458
890.323	-62.1569
890.503	38.99053
890.683	13.69845
890.863	24.2364
891.043	-20.01897
891.223	62.17789
891.403	-47.40976
891.583	30.55946
891.763	47.42198
891.943	3.16109
892.122	17.91356
892.302	-41.08919
892.482	-22.12611
892.662	-1.05368
892.842	5.26851
893.022	57.9618
893.201	-1.05368
893.381	41.09836
893.561	20.02115
893.741	1.05369
893.92	17.91356
894.1	26.34407
894.28	68.5022
894.459	100.12679
894.639	41.09836
894.819	-53.73012
894.998	47.42198
895.178	-5.26836
895.357	53.7458
895.537	41.09836
895.716	68.5022
895.896	-45.30293
896.075	-1.05368
896.255	1.05369
896.434	-41.08919
896.614	9.48343
896.793	24.2364
896.973	32.66719
897.152	-51.62336
897.331	36.88273
897.511	11.59093
897.69	-34.76838
897.87	-13.69743
898.049	11.59093
898.228	15.80599
898.407	41.09836
898.587	22.12877
898.766	7.37596
898.945	-9.48295
899.124	-66.37014
899.304	-57.94356
899.483	45.31408
899.662	9.48343
899.841	-7.37567
900.02	-34.76838
900.199	-43.19607
900.378	49.5299
900.557	36.88273
900.737	-79.00925
900.916	-20.01897
901.095	9.48343
901.274	24.2364
901.453	60.06984
901.632	17.91356
901.811	28.45175
901.989	-9.48295
902.168	-9.48295
902.347	70.61035
902.526	-17.91182
902.705	-36.87534
902.884	26.34407
903.063	-55.83685
903.242	41.09836
903.42	57.9618
903.599	-47.40976
903.778	-57.94356
903.957	57.9618
904.135	-41.08919
904.314	17.91356
904.493	11.59093
904.672	28.45175
904.85	-5.26836
905.029	30.55946
905.207	91.69308
905.386	-17.91182
905.565	-1.05368
905.743	15.80599
905.922	-34.76838
906.1	-15.80464
906.279	100.12679
906.457	-34.76838
906.636	13.69845
906.814	-11.5902
906.993	36.88273
907.171	108.56086
907.35	-5.26836
907.528	28.45175
907.707	20.02115
907.885	11.59093
908.063	3.16109
908.242	-22.12611
908.42	26.34407
908.598	60.06984
908.777	17.91356
908.955	91.69308
909.133	-41.08919
909.311	11.59093
909.49	-17.91182
909.668	104.34378
909.846	-55.83685
910.024	72.71852
910.202	24.2364
910.38	-17.91182
910.559	-28.44736
910.737	-9.48295
910.915	-76.90279
911.093	-57.94356
911.271	17.91356
911.449	24.2364
911.627	62.17789
911.805	26.34407
911.983	34.77495
912.161	-38.98228
912.339	-5.26836
912.517	60.06984
912.695	72.71852
912.872	-1.05368
913.05	5.26851
913.228	45.31408
913.406	15.80599
913.584	43.20621
913.762	15.80599
913.939	-34.76838
914.117	-32.6614
914.295	32.66719
914.473	-13.69743
914.65	32.66719
914.828	-68.47672
915.006	9.48343
915.184	41.09836
915.361	41.09836
915.539	-34.76838
915.716	41.09836
915.894	98.01833
916.072	-9.48295
916.249	-34.76838
916.427	-43.19607
916.604	-9.48295
916.782	-60.05024
916.959	32.66719
917.137	66.39408
917.314	-22.12611
917.492	38.99053
917.669	-76.90279
917.847	-5.26836
918.024	-17.91182
918.201	43.20621
918.379	-45.30293
918.556	17.91356
918.733	-64.26353
918.911	-20.01897
919.088	-28.44736
919.265	49.5299
919.442	-26.3403
919.62	5.26851
919.797	-26.3403
919.974	47.42198
920.151	-34.76838
920.328	26.34407
920.506	-20.01897
920.683	51.63784
920.86	17.91356
921.037	-1.05368
921.214	11.59093
921.391	68.5022
921.568	112.77803
921.745	135.97399
921.922	-34.76838
922.099	-43.19607
922.276	24.2364
922.453	-9.48295
922.63	24.2364
922.807	53.7458
922.984	17.91356
923.161	9.48343
923.338	11.59093
923.514	1.05369
923.691	-38.98228
923.868	-36.87534
924.045	-5.26836
924.222	-7.37567
924.399	15.80599
924.575	66.39408
924.752	5.26851
924.929	41.09836
925.105	-72.68981
925.282	15.80599
925.459	-15.80464
925.635	-13.69743
925.812	-36.87534
925.989	5.26851
926.165	24.2364
926.342	9.48343
926.518	-43.19607
926.695	70.61035
926.871	1.05369
927.048	7.37596
927.224	11.59093
927.401	1.05369
927.577	-3.16104
927.754	83.25972
927.93	-13.69743
928.107	15.80599
928.283	-11.5902
928.459	-26.3403
928.636	-28.44736
928.812	-13.69743
928.988	-9.48295
929.165	-26.3403
929.341	-45.30293
929.517	5.26851
929.693	36.88273
929.87	7.37596
930.046	26.34407
930.222	-9.48295
930.398	17.91356
930.574	-9.48295
930.751	49.5299
930.927	-64.26353
931.103	36.88273
931.279	11.59093
931.455	3.16109
931.631	3.16109
931.807	83.25972
931.983	-55.83685
932.159	53.7458
932.335	-5.26836
932.511	-43.19607
932.687	64.28597
932.863	-38.98228
933.039	38.99053
933.215	-7.37567
933.391	-9.48295
933.566	-34.76838
933.742	55.85379
933.918	-1.05368
934.094	-32.6614
934.27	7.37596
934.445	28.45175
934.621	9.48343
934.797	5.26851
934.973	32.66719
935.148	11.59093
935.324	64.28597
935.5	24.2364
935.675	-1.05368
935.851	100.12679
936.027	45.31408
936.202	-15.80464
936.378	34.77495
936.553	22.12877
936.729	5.26851
936.904	7.37596
937.08	-1.05368
937.255	-26.3403
937.431	-5.26836
937.606	15.80599
937.782	9.48343
937.957	-3.16104
938.133	-89.54113
938.308	15.80599
938.483	-57.94356
938.659	-89.54113
938.834	-34.76838
939.009	-17.91182
939.185	-26.3403
939.36	24.2364
939.535	-22.12611
939.71	-5.26836
939.886	17.91356
940.061	-83.22208
940.236	49.5299
940.411	41.09836
940.586	-32.6614
940.761	9.48343
940.937	95.90989
941.112	57.9618
941.287	7.37596
941.462	36.88273
941.637	-7.37567
941.812	-55.83685
941.987	30.55946
942.162	-3.16104
942.337	-43.19607
942.512	51.63784
942.687	-7.37567
942.862	-1.05368
943.037	-1.05368
943.212	57.9618
943.386	-9.48295
943.561	55.85379
943.736	-68.47672
943.911	-70.58328
944.086	-36.87534
944.26	36.88273
944.435	-22.12611
944.61	-17.91182
944.785	-3.16104
944.959	13.69845
945.134	13.69845
945.309	-9.48295
945.483	-28.44736
945.658	26.34407
945.833	11.59093
946.007	-1.05368
946.182	5.26851
946.357	-3.16104
946.531	24.2364
946.706	20.02115
946.88	-55.83685
947.055	-3.16104
947.229	15.80599
947.404	-1.05368
947.578	-74.79631
947.752	43.20621
947.927	20.02115
948.101	-11.5902
948.276	-20.01897
948.45	9.48343
948.624	32.66719
948.799	3.16109
948.973	-9.48295
949.147	49.5299
949.321	47.42198
949.496	20.02115
949.67	-15.80464
949.844	-15.80464
950.018	-22.12611
950.193	24.2364
950.367	-68.47672
950.541	-36.87534
950.715	-57.94356
950.889	41.09836
951.063	51.63784
951.237	26.34407
951.411	-32.6614
951.585	49.5299
951.759	-13.69743
951.933	-38.98228
952.107	3.16109
952.281	-41.08919
952.455	-13.69743
952.629	49.5299
952.803	-81.11567
952.977	15.80599
953.151	43.20621
953.325	32.66719
953.499	-36.87534
953.672	-83.22208
953.846	7.37596
954.02	60.06984
954.194	7.37596
954.368	17.91356
954.541	43.20621
954.715	24.2364
954.889	24.2364
955.062	-9.48295
955.236	51.63784
955.41	7.37596
955.583	22.12877
955.757	53.7458
955.93	-41.08919
956.104	-17.91182
956.278	-26.3403
956.451	70.61035
956.625	5.26851
956.798	-17.91182
956.972	7.37596
957.145	-5.26836
957.319	-13.69743
957.492	-72.68981
957.665	20.02115
957.839	-47.40976
958.012	-17.91182
958.185	-1.05368
958.359	-22.12611
958.532	-17.91182
958.705	68.5022
958.879	36.88273
959.052	15.80599
959.225	-13.69743
959.398	20.02115
959.572	-57.94356
959.745	-60.05024
959.918	51.63784
960.091	15.80599
960.264	-57.94356
960.438	20.02115
960.611	-72.68981
960.784	-55.83685
960.957	7.37596
961.13	5.26851
961.303	-5.26836
961.476	9.48343
961.649	-7.37567
961.822	38.99053
961.995	-26.3403
962.168	24.2364
962.341	15.80599
962.514	45.31408
962.686	53.7458
962.859	-3.16104
963.032	85.36802
963.205	-24.23321
963.378	-30.55439
963.551	49.5299
963.723	-13.69743
963.896	-9.48295
964.069	36.88273
964.242	-60.05024
964.414	-36.87534
964.587	-60.05024
964.76	26.34407
964.932	-17.91182
965.105	-47.40976
965.278	-24.23321
965.45	7.37596
965.623	45.31408
965.795	49.5299
965.968	-30.55439
966.14	15.80599
966.313	-38.98228
966.485	-5.26836
966.658	-47.40976
966.83	20.02115
967.003	36.88273
967.175	-49.51657
967.348	142.30062
967.52	-64.26353
967.692	13.69845
967.865	-9.48295
968.037	1.05369
968.209	34.77495
968.382	-34.76838
968.554	7.37596
968.726	-24.23321
968.898	-1.05368
969.071	-7.37567
969.243	-57.94356
969.415	60.06984
969.587	-13.69743
969.759	15.80599
969.932	-53.73012
970.104	34.77495
970.276	-64.26353
970.448	51.63784
970.62	57.9618
970.792	24.2364
970.964	5.26851
971.136	-15.80464
971.308	13.69845
971.48	-7.37567
971.652	34.77495
971.824	-26.3403
971.996	-38.98228
972.168	20.02115
972.339	-15.80464
972.511	-1.05368
972.683	66.39408
972.855	-34.76838
973.027	45.31408
973.199	-7.37567
973.37	-7.37567
973.542	7.37596
973.714	-13.69743
973.886	13.69845
974.057	47.42198
974.229	11.59093
974.401	32.66719
974.572	62.17789
974.744	-11.5902
974.915	-7.37567
975.087	3.16109
975.259	32.66719
975.43	30.55946
975.602	-24.23321
975.773	-32.6614
975.945	-9.48295
976.116	28.45175
976.288	-43.19607
976.459	-17.91182
976.63	5.26851
976.802	-28.44736
976.973	-9.48295
977.145	7.37596
977.316	-38.98228
977.487	26.34407
977.659	28.45175
977.83	-72.68981
978.001	36.88273
978.172	34.77495
978.344	3.16109
978.515	28.45175
978.686	85.36802
978.857	26.34407
979.028	-15.80464
979.2	30.55946
979.371	26.34407
979.542	57.9618
979.713	-17.91182
979.884	-57.94356
980.055	-1.05368
980.226	34.77495
980.397	32.66719
980.568	-43.19607
980.739	3.16109
980.91	45.31408
981.081	15.80599
981.252	24.2364
981.423	17.91356
981.594	26.34407
981.765	-47.40976
981.936	74.82672
982.106	7.37596
982.277	-1.05368
982.448	-20.01897
982.619	20.02115
982.79	-1.05368
982.96	-76.90279
983.131	-5.26836
983.302	-5.26836
983.472	26.34407
983.643	15.80599
983.814	15.80599
983.984	-72.68981
984.155	26.34407
984.326	-7.37567
984.496	-24.23321
984.667	1.05369
984.837	-91.64742
985.008	13.69845
985.178	3.16109
985.349	41.09836
985.519	-17.91182
985.69	1.05369
985.86	-34.76838
986.031	-15.80464
986.201	24.2364
986.371	-11.5902
986.542	43.20621
986.712	-57.94356
986.882	-57.94356
987.053	60.06984
987.223	-5.26836
987.393	-13.69743
987.563	24.2364
987.734	-34.76838
987.904	3.16109
988.074	9.48343
988.244	-15.80464
988.414	-7.37567
988.585	-7.37567
988.755	15.80599
988.925	-43.19607
989.095	-26.3403
989.265	-104.28467
989.435	11.59093
989.605	34.77495
989.775	-36.87534
989.945	-3.16104
990.115	-13.69743
990.285	5.26851
990.455	7.37596
990.625	-22.12611
990.795	26.34407
990.965	11.59093
991.134	-30.55439
991.304	-62.1569
991.474	49.5299
991.644	34.77495
991.814	-30.55439
991.984	36.88273
992.153	-30.55439
992.323	-38.98228
992.493	53.7458
992.662	-26.3403
992.832	-5.26836
993.002	41.09836
993.171	-5.26836
993.341	-34.76838
993.511	-68.47672
993.68	-55.83685
993.85	-1.05368
994.019	-3.16104
994.189	-60.05024
994.358	-32.6614
994.528	20.02115
994.697	68.5022
994.867	79.04317
995.036	-13.69743
995.206	22.12877
995.375	-41.08919
995.544	9.48343
995.714	36.88273
995.883	36.88273
996.052	-7.37567
996.222	11.59093
996.391	-60.05024
996.56	9.48343
996.73	-24.23321
996.899	-66.37014
997.068	-9.48295
997.237	1.05369
997.406	30.55946
997.576	-17.91182
997.745	-55.83685
997.914	24.2364
998.083	53.7458
998.252	32.66719
998.421	28.45175
998.59	-11.5902
998.759	-13.69743
998.928	-11.5902
999.097	24.2364
999.266	22.12877
999.435	-5.26836
999.604	-3.16104
999.773	45.31408
999.942	5.26851
1000.111	36.88273
1000.28	32.66719
1000.448	28.45175
1000.617	64.28597
1000.786	5.26851
1000.955	1.05369
1001.124	-26.3403
1001.292	-1.05368
1001.461	-32.6614
1001.63	7.37596
1001.798	43.20621
1001.967	26.34407
1002.136	3.16109
1002.304	-62.1569
1002.473	20.02115
1002.642	-26.3403
1002.81	49.5299
1002.979	66.39408
1003.147	-38.98228
1003.316	-17.91182
1003.484	3.16109
1003.653	24.2364
1003.821	41.09836
1003.99	-1.05368
1004.158	28.45175
1004.327	-68.47672
1004.495	3.16109
1004.663	79.04317
1004.832	57.9618
1005	7.37596
1005.168	13.69845
1005.337	28.45175
1005.505	-41.08919
1005.673	74.82672
1005.842	-36.87534
1006.01	-26.3403
1006.178	-11.5902
1006.346	20.02115
1006.514	20.02115
1006.683	5.26851
1006.851	26.34407
1007.019	51.63784
1007.187	-1.05368
1007.355	-20.01897
1007.523	-32.6614
1007.691	-49.51657
1007.859	30.55946
1008.027	-79.00925
1008.195	-30.55439
1008.363	3.16109
1008.531	-32.6614
1008.699	53.7458
1008.867	15.80599
1009.035	-85.32845
1009.203	-17.91182
1009.37	-15.80464
1009.538	-1.05368
1009.706	-49.51657
1009.874	-1.05368
1010.042	38.99053
1010.209	79.04317
1010.377	68.5022
1010.545	43.20621
1010.713	93.80147
1010.88	-47.40976
1011.048	-45.30293
1011.216	-28.44736
1011.383	-7.37567
1011.551	-72.68981
1011.718	9.48343
1011.886	-60.05024
1012.054	-15.80464
1012.221	-60.05024
1012.389	76.93493
1012.556	-13.69743
1012.724	24.2364
1012.891	-3.16104
1013.058	30.55946
1013.226	-68.47672
1013.393	-17.91182
1013.561	32.66719
1013.728	32.66719
1013.895	68.5022
1014.063	-24.23321
1014.23	20.02115
1014.397	-43.19607
1014.565	-17.91182
1014.732	28.45175
1014.899	-34.76838
1015.066	-49.51657
1015.233	-38.98228
1015.401	-34.76838
1015.568	76.93493
1015.735	-43.19607
1015.902	-1.05368
1016.069	1.05369
1016.236	125.43005
1016.403	-55.83685
1016.57	-24.23321
1016.737	51.63784
1016.904	-30.55439
1017.071	-30.55439
1017.238	-1.05368
1017.405	-13.69743
1017.572	-43.19607
1017.739	3.16109
1017.906	20.02115
1018.073	13.69845
1018.24	-70.58328
1018.407	32.66719
1018.573	-3.16104
1018.74	-72.68981
1018.907	-26.3403
1019.074	7.37596
1019.241	-34.76838
1019.407	-57.94356
1019.574	-22.12611
1019.741	74.82672
1019.907	24.2364
1020.074	-36.87534
1020.241	41.09836
1020.407	-26.3403
1020.574	72.71852
1020.74	7.37596
1020.907	-1.05368
1021.073	-13.69743
1021.24	104.34378
1021.406	-9.48295
1021.573	24.2364
1021.739	53.7458
1021.906	15.80599
1022.072	15.80599
1022.239	7.37596
1022.405	3.16109
1022.571	-11.5902
1022.738	-9.48295
1022.904	-34.76838
1023.07	-7.37567
1023.237	-68.47672
1023.403	5.26851
1023.569	-20.01897
1023.735	-13.69743
1023.902	32.66719
1024.068	24.2364
1024.234	41.09836
1024.4	95.90989
1024.566	24.2364
1024.732	28.45175
1024.898	-26.3403
1025.065	-5.26836
1025.231	7.37596
1025.397	68.5022
1025.563	15.80599
1025.729	91.69308
1025.895	34.77495
1026.061	-7.37567
1026.227	-9.48295
1026.392	-26.3403
1026.558	43.20621
1026.724	34.77495
1026.89	9.48343
1027.056	-51.62336
1027.222	-129.5563
1027.388	7.37596
1027.553	-24.23321
1027.719	28.45175
1027.885	74.82672
1028.051	15.80599
1028.216	-5.26836
1028.382	-13.69743
1028.548	28.45175
1028.713	-15.80464
1028.879	13.69845
1029.045	15.80599
1029.21	3.16109
1029.376	7.37596
1029.541	1.05369
1029.707	57.9618
1029.873	36.88273
1030.038	26.34407
1030.204	-28.44736
1030.369	66.39408
1030.534	-17.91182
1030.7	-55.83685
1030.865	36.88273
1031.031	62.17789
1031.196	-9.48295
1031.361	-47.40976
1031.527	-1.05368
1031.692	7.37596
1031.857	15.80599
1032.023	-24.23321
1032.188	24.2364
1032.353	17.91356
1032.518	53.7458
1032.684	-9.48295
1032.849	32.66719
1033.014	30.55946
1033.179	9.48343
1033.344	24.2364
1033.509	-85.32845
1033.674	-7.37567
1033.839	68.5022
1034.004	-32.6614
1034.17	-22.12611
1034.335	70.61035
1034.5	-5.26836
1034.664	-20.01897
1034.829	-51.62336
1034.994	-22.12611
1035.159	-1.05368
1035.324	3.16109
1035.489	7.37596
1035.654	-7.37567
1035.819	38.99053
1035.984	3.16109
1036.148	-85.32845
1036.313	24.2364
1036.478	-7.37567
1036.643	15.80599
1036.807	7.37596
1036.972	-15.80464
1037.137	47.42198
1037.301	-30.55439
1037.466	15.80599
1037.631	-7.37567
1037.795	-1.05368
1037.96	7.37596
1038.124	-11.5902
1038.289	17.91356
1038.454	1.05369
1038.618	-7.37567
1038.783	28.45175
1038.947	-51.62336
1039.111	-22.12611
1039.276	-89.54113
1039.44	-34.76838
1039.605	7.37596
1039.769	-36.87534
1039.933	7.37596
1040.098	57.9618
1040.262	34.77495
1040.426	38.99053
1040.591	1.05369
1040.755	57.9618
1040.919	-5.26836
1041.083	-106.39078
1041.248	9.48343
1041.412	-5.26836
1041.576	-15.80464
1041.74	83.25972
1041.904	9.48343
1042.068	-38.98228
1042.232	15.80599
1042.397	-17.91182
1042.561	-26.3403
1042.725	-41.08919
1042.889	-68.47672
1043.053	24.2364
1043.217	11.59093
1043.381	20.02115
1043.544	32.66719
1043.708	-24.23321
1043.872	-17.91182
1044.036	-43.19607
1044.2	3.16109
1044.364	87.47635
1044.528	68.5022
1044.691	36.88273
1044.855	1.05369
1045.019	-43.19607
1045.183	-24.23321
1045.346	32.66719
1045.51	-45.30293
1045.674	-1.05368
1045.837	28.45175
1046.001	43.20621
1046.165	-1.05368
1046.328	-13.69743
1046.492	-30.55439
1046.655	-17.91182
1046.819	3.16109
1046.983	26.34407
1047.146	32.66719
1047.31	-49.51657
1047.473	74.82672
1047.636	-7.37567
1047.8	41.09836
1047.963	-34.76838
1048.127	7.37596
1048.29	51.63784
