Data from Scatter_Coeff_Baseline_USB4F045381__0__0000.txt Node

Date: Thu Feb 13 19:12:09 EST 2025
User: mmckonesweet
Spectrometer: USB4F04538
Trigger mode: 4
Integration Time (sec): 2.400000E-3
Scans to average: 1
Electric dark correction enabled: true
Nonlinearity correction enabled: true
Boxcar width: 0
XAxis mode: Wavelengths
Number of Pixels in Spectrum: 3648
>>>>>Begin Spectral Data<<<<<
345.52	3.68794
345.736	3.68794
345.952	3.68794
346.168	-55.31017
346.384	-21.59933
346.6	-38.45555
346.816	50.05688
347.032	-21.59933
347.248	-27.92059
347.464	-55.31017
347.68	31.08639
347.896	-4.74153
348.112	-2.6342
348.328	-17.38502
348.544	-4.74153
348.76	37.40968
348.975	54.2728
349.191	20.54805
349.407	18.44046
349.623	3.68794
349.839	-30.02763
350.055	-34.24164
350.27	-57.41689
350.486	58.48881
350.702	-59.52357
350.918	33.19413
351.133	18.44046
351.349	35.30189
351.565	43.73317
351.781	-40.56246
351.996	-107.97035
352.212	47.94895
352.428	28.97868
352.644	7.90283
352.859	62.70491
353.075	5.79537
353.291	10.01031
353.506	-4.74153
353.722	20.54805
353.938	-27.92059
354.153	-30.02763
354.369	3.68794
354.584	-15.27784
354.8	18.44046
355.016	5.79537
355.231	-8.95613
355.447	-2.6342
355.662	-11.06339
355.878	92.22017
356.093	12.11781
356.309	-51.09666
356.524	37.40968
356.74	1.58054
356.955	58.48881
357.171	-63.73688
357.386	37.40968
357.602	20.54805
357.817	10.01031
358.033	22.65567
358.248	-34.24164
358.464	5.79537
358.679	54.2728
358.895	31.08639
359.11	28.97868
359.325	64.813
359.541	-21.59933
359.756	66.92111
359.972	5.79537
360.187	-0.52684
360.402	3.68794
360.618	71.13739
360.833	39.51749
361.048	20.54805
361.264	-2.6342
361.479	-4.74153
361.694	-36.3486
361.909	-30.02763
362.125	-6.84884
362.34	47.94895
362.555	33.19413
362.77	85.8951
362.986	43.73317
363.201	-6.84884
363.416	-44.77622
363.631	69.02924
363.847	31.08639
364.062	-8.95613
364.277	-6.84884
364.492	37.40968
364.707	-2.6342
364.922	-46.88306
365.138	3.68794
365.353	-17.38502
365.568	5.79537
365.783	88.00344
365.998	-40.56246
366.213	-13.17063
366.428	-21.59933
366.643	-8.95613
366.858	28.97868
367.073	33.19413
367.288	-32.13465
367.503	-27.92059
367.718	16.33288
367.933	-44.77622
368.148	7.90283
368.363	28.97868
368.578	5.79537
368.793	-8.95613
369.008	3.68794
369.223	24.76332
369.438	-23.70644
369.653	14.22533
369.868	18.44046
370.083	28.97868
370.298	47.94895
370.513	-8.95613
370.728	20.54805
370.943	33.19413
371.157	-6.84884
371.372	66.92111
371.587	1.58054
371.802	50.05688
372.017	64.813
372.232	85.8951
372.446	-67.95008
372.661	31.08639
372.876	94.32857
373.091	12.11781
373.306	5.79537
373.52	54.2728
373.735	45.84105
373.95	-0.52684
374.165	20.54805
374.379	-23.70644
374.594	-17.38502
374.809	45.84105
375.023	14.22533
375.238	33.19413
375.453	26.87099
375.667	-25.81353
375.882	88.00344
376.097	16.33288
376.311	18.44046
376.526	10.01031
376.741	92.22017
376.955	26.87099
377.17	16.33288
377.384	115.4138
377.599	-0.52684
377.813	-13.17063
378.028	37.40968
378.242	-2.6342
378.457	12.11781
378.672	16.33288
378.886	33.19413
379.101	12.11781
379.315	37.40968
379.53	31.08639
379.744	75.35377
379.958	-36.3486
380.173	85.8951
380.387	24.76332
380.602	98.54544
380.816	-23.70644
381.031	37.40968
381.245	26.87099
381.459	-27.92059
381.674	28.97868
381.888	12.11781
382.103	-32.13465
382.317	7.90283
382.531	10.01031
382.746	109.088
382.96	20.54805
383.174	12.11781
383.388	14.22533
383.603	18.44046
383.817	88.00344
384.031	50.05688
384.246	-34.24164
384.46	35.30189
384.674	12.11781
384.888	-19.49219
385.103	-0.52684
385.317	26.87099
385.531	-19.49219
385.745	-11.06339
385.959	60.59685
386.174	-46.88306
386.388	47.94895
386.602	-13.17063
386.816	-11.06339
387.03	-36.3486
387.244	33.19413
387.458	26.87099
387.672	-0.52684
387.887	20.54805
388.101	14.22533
388.315	58.48881
388.529	-27.92059
388.743	16.33288
388.957	92.22017
389.171	41.62532
389.385	16.33288
389.599	-15.27784
389.813	66.92111
390.027	-2.6342
390.241	14.22533
390.455	-15.27784
390.669	62.70491
390.883	-53.20343
391.097	-11.06339
391.311	69.02924
391.525	1.58054
391.738	31.08639
391.952	12.11781
392.166	-8.95613
392.38	66.92111
392.594	-27.92059
392.808	7.90283
393.022	12.11781
393.236	-86.90822
393.449	45.84105
393.663	7.90283
393.877	24.76332
394.091	35.30189
394.305	1.58054
394.518	-27.92059
394.732	28.97868
394.946	56.38079
395.16	58.48881
395.373	-27.92059
395.587	24.76332
395.801	43.73317
396.015	-6.84884
396.228	62.70491
396.442	56.38079
396.656	39.51749
396.869	-38.45555
397.083	43.73317
397.297	3.68794
397.51	-38.45555
397.724	7.90283
397.938	24.76332
398.151	37.40968
398.365	5.79537
398.578	3.68794
398.792	60.59685
399.005	20.54805
399.219	10.01031
399.433	-42.66935
399.646	73.24557
399.86	-21.59933
400.073	-6.84884
400.287	62.70491
400.5	37.40968
400.714	28.97868
400.927	125.95723
401.141	7.90283
401.354	58.48881
401.567	-8.95613
401.781	-15.27784
401.994	113.30518
402.208	26.87099
402.421	39.51749
402.635	5.79537
402.848	33.19413
403.061	-4.74153
403.275	33.19413
403.488	28.97868
403.701	-2.6342
403.915	7.90283
404.128	1.58054
404.341	33.19413
404.555	113.30518
404.768	50.05688
404.981	16.33288
405.195	-15.27784
405.408	33.19413
405.621	58.48881
405.834	26.87099
406.048	62.70491
406.261	33.19413
406.474	71.13739
406.687	31.08639
406.9	37.40968
407.114	83.78679
407.327	39.51749
407.54	12.11781
407.753	1.58054
407.966	5.79537
408.179	75.35377
408.392	-21.59933
408.605	-4.74153
408.819	47.94895
409.032	20.54805
409.245	50.05688
409.458	138.61006
409.671	90.11179
409.884	102.7624
410.097	41.62532
410.31	153.37267
410.523	106.97945
410.736	28.97868
410.949	71.13739
411.162	54.2728
411.375	123.8485
411.588	88.00344
411.801	54.2728
412.014	-2.6342
412.227	45.84105
412.44	33.19413
412.653	85.8951
412.865	109.088
413.078	79.57023
413.291	92.22017
413.504	94.32857
413.717	161.80891
413.93	66.92111
414.143	75.35377
414.356	60.59685
414.568	28.97868
414.781	54.2728
414.994	60.59685
415.207	52.16483
415.42	37.40968
415.632	144.93677
415.845	106.97945
416.058	79.57023
416.271	94.32857
416.483	136.50121
416.696	81.6785
416.909	56.38079
417.121	132.28355
417.334	62.70491
417.547	94.32857
417.759	79.57023
417.972	66.92111
418.185	66.92111
418.397	117.52244
418.61	104.87091
418.823	130.17476
419.035	62.70491
419.248	109.088
419.46	123.8485
419.673	66.92111
419.885	174.4639
420.098	113.30518
420.311	92.22017
420.523	109.088
420.736	58.48881
420.948	172.35468
421.161	62.70491
421.373	69.02924
421.586	157.59075
421.798	125.95723
422.01	125.95723
422.223	134.39237
422.435	138.61006
422.648	111.19658
422.86	147.04571
423.073	85.8951
423.285	77.46199
423.497	109.088
423.71	147.04571
423.922	71.13739
424.134	172.35468
424.347	119.63111
424.559	117.52244
424.771	117.52244
424.984	121.73979
425.196	109.088
425.408	180.79167
425.621	125.95723
425.833	163.91802
426.045	142.82785
426.257	151.26366
426.47	155.4817
426.682	153.37267
426.894	149.15468
427.106	197.66663
427.318	142.82785
427.531	163.91802
427.743	197.66663
427.955	201.88557
428.167	100.65391
428.379	185.01029
428.591	197.66663
428.804	128.06598
429.016	191.33836
429.228	265.17916
429.44	201.88557
429.652	208.21413
429.864	121.73979
430.076	265.17916
430.288	210.32369
430.5	157.59075
430.712	273.61962
430.924	277.83996
431.136	210.32369
431.348	275.72978
431.56	315.82634
431.772	231.42039
431.984	239.85962
432.196	307.38441
432.408	187.11962
432.62	301.05315
432.832	324.26855
433.044	267.28925
433.256	282.06037
433.468	330.6004
433.679	275.72978
433.891	334.82172
434.103	360.15111
434.315	328.48976
434.527	385.48296
434.739	353.81853
434.95	334.82172
435.162	387.59405
435.374	324.26855
435.586	387.59405
435.798	347.4861
436.009	379.14977
436.221	351.7077
436.433	362.262
436.645	353.81853
436.856	484.72183
437.068	347.4861
437.28	467.82768
437.491	320.04741
437.703	442.48828
437.915	446.71136
438.126	419.26247
438.338	396.03861
438.55	457.26933
438.761	535.4099
438.973	535.4099
439.184	493.16926
439.396	622.02035
439.608	417.15113
439.819	622.02035
440.031	518.51296
440.242	482.61001
440.454	550.19546
440.665	497.39307
440.877	632.58408
441.088	613.56959
441.3	545.97095
441.511	474.16288
441.723	516.40091
441.934	556.53234
442.146	588.21852
442.357	645.26097
442.569	636.80966
442.78	660.05121
442.991	545.97095
443.203	586.10602
443.414	607.23165
443.626	672.72903
443.837	674.84204
444.048	598.78124
444.26	577.65613
444.471	746.69103
444.682	807.98352
444.894	670.61603
445.105	588.21852
445.316	746.69103
445.528	693.85964
445.739	708.65175
445.95	681.18114
446.161	681.18114
446.373	877.73969
446.584	683.29419
446.795	865.05604
447.006	833.34828
447.217	717.10462
447.429	695.97277
447.64	810.0972
447.851	873.51177
448.062	755.14466
448.273	862.94213
448.484	892.53765
448.695	907.336
448.907	835.46207
449.118	858.71433
449.329	865.05604
449.54	949.61908
449.751	858.71433
449.962	900.9938
450.173	831.2345
450.384	1006.70571
450.595	1004.59131
450.806	1182.22019
451.017	1065.91149
451.228	998.24813
451.439	1127.23619
451.65	1027.8501
451.861	970.7617
452.072	1015.1634
452.283	1101.85995
452.494	1177.99056
452.705	1125.12148
452.915	1131.46563
453.126	1211.82803
453.337	1137.80982
453.548	1338.72499
453.759	1313.34496
453.97	1357.76016
454.181	1448.707
454.391	1199.13887
454.602	1488.89297
454.813	1400.06086
455.024	1524.8487
455.235	1279.50535
455.445	1359.87518
455.656	1342.95502
455.867	1374.68039
456.078	1529.07877
456.288	1442.36184
456.499	1410.63609
456.71	1569.26422
456.921	1433.90163
457.131	1717.30984
457.342	1632.71376
457.553	1702.50586
457.763	1600.9892
457.974	1960.4888
458.184	1723.65435
458.395	1814.58873
458.606	1603.10418
458.816	1992.20267
459.027	1958.3745
459.237	1897.05708
459.448	2150.74893
459.659	1985.86001
459.869	1975.28878
460.08	2040.82777
460.29	2178.22594
460.501	2364.18502
460.711	2279.66703
460.922	2000.65946
461.132	2243.74231
461.343	2083.10751
461.553	2334.6055
461.764	2305.02405
461.974	2324.04091
462.184	2203.5881
462.395	2539.50704
462.605	2476.14633
462.816	2408.5506
463.026	2590.1881
463.236	2558.51323
463.447	2619.74885
463.657	2594.41121
463.867	2733.74591
464.078	2716.85983
464.288	3043.86877
464.498	3014.34692
464.709	2974.27678
464.919	2862.4739
465.129	2974.27678
465.339	2989.0401
465.55	3157.71
465.76	3157.71
465.97	3311.53094
466.18	3081.82097
466.391	3566.2909
466.601	3229.36369
466.811	3404.2011
467.021	3669.38203
467.231	3734.5794
467.441	3296.78487
467.651	4014.08259
467.862	3917.45239
468.072	4070.78013
468.282	3875.42591
468.492	3955.26933
468.702	4051.88262
468.912	4412.7391
469.122	4089.67596
469.332	4391.77645
469.542	4140.05658
469.752	4584.54994
469.962	4421.12355
470.172	4844.07615
470.382	4513.32931
470.592	4597.11562
470.802	4802.24061
471.012	4892.17573
471.222	4956.98644
471.432	5142.93273
471.642	4919.3571
471.852	5078.18573
472.062	5176.3418
472.272	5268.18597
472.482	5397.5259
472.691	5539.2788
472.901	5374.58507
473.111	5749.62246
473.321	5739.21507
473.531	5766.27306
473.741	5803.73138
473.95	6051.1802
474.16	5843.26242
474.37	6173.74123
474.58	6194.50618
474.79	6572.02001
474.999	6265.08947
475.209	6289.99475
475.419	6526.42741
475.628	6863.96271
475.838	6569.94786
476.048	6748.06837
476.258	6828.78806
476.467	7064.53999
476.677	7213.28569
476.886	7421.74991
477.096	7399.05671
477.306	7339.21655
477.515	7256.64818
477.725	7541.36167
477.935	7648.5384
478.144	7877.12846
478.354	7928.57731
478.563	8210.29121
478.773	8294.52679
478.982	8296.58091
479.192	8333.5516
479.401	8522.41506
479.611	8616.78634
479.82	8573.70874
480.03	8823.85492
480.239	9108.53024
480.449	8758.26929
480.658	9298.8097
480.868	9437.84747
481.077	9366.29339
481.287	9034.83398
481.496	9433.7592
481.705	9678.94245
481.915	9793.28464
482.124	9746.32845
482.333	9938.18651
482.543	9913.70128
482.752	9852.47894
482.961	10066.6998
483.171	10182.92526
483.38	10152.34401
483.589	10439.68763
483.799	10592.424
484.008	10635.17752
484.217	10761.37081
484.426	10954.64341
484.636	10926.16765
484.845	11149.8473
485.054	10859.03738
485.263	11123.4193
485.472	11103.08884
485.682	11493.25316
485.891	11472.94116
486.1	11434.34573
486.309	12087.99861
486.518	11907.41903
486.727	11793.7628
486.936	12014.96275
487.146	11840.44623
487.355	12136.68364
487.564	12191.44912
487.773	12343.54766
487.982	12367.87976
488.191	12402.34854
488.4	12769.22486
488.609	12734.7753
488.818	12791.51487
489.027	12919.163
489.236	12864.45929
489.445	12955.63
489.654	12866.48543
489.863	13194.65162
490.072	13299.96276
490.281	13666.44231
490.49	13551.04465
490.698	13696.80831
490.907	13482.20549
491.116	14057.10112
491.325	13708.95451
491.534	13866.84507
491.743	14006.50328
491.952	14138.05467
492.16	14320.18806
492.369	14405.17865
492.578	14544.80029
492.787	14785.58396
492.996	14623.71417
493.204	14488.14303
493.413	14888.77335
493.622	14625.73758
493.831	14906.98309
494.039	14959.58877
494.248	14639.90142
494.457	15273.19646
494.665	15186.19573
494.874	15163.93975
495.083	15131.56742
495.291	15378.40716
495.5	15702.14116
495.709	15485.64224
495.917	15811.40612
496.126	15900.43921
496.335	15724.3986
496.543	15959.12143
496.752	15884.25121
496.96	16112.91484
497.169	16335.52698
497.377	16295.05046
497.586	16195.88603
497.794	16384.0998
498.003	16222.19455
498.211	16325.40778
498.42	16272.78869
498.628	16823.33436
498.837	16639.12636
499.045	17009.58758
499.254	16829.40749
499.462	17044.00638
499.671	16776.77442
499.879	16971.12043
500.087	16938.72778
500.296	17189.78902
500.504	17011.61219
500.713	17406.46602
500.921	17511.77961
501.129	17467.22283
501.338	17270.78578
501.546	17993.90504
501.754	17687.99669
501.962	17560.38877
502.171	17673.81739
502.379	18062.79605
502.587	17604.94879
502.795	17882.47236
503.004	17578.61768
503.212	17651.53595
503.42	17872.34264
503.628	18285.70744
503.837	18218.82936
504.045	18198.56407
504.253	18224.90902
504.461	18352.58959
504.669	18405.2875
504.877	18713.41948
505.085	18591.77774
505.294	18796.54948
505.502	18668.81588
505.71	18989.1935
505.918	18814.79842
506.126	18711.39201
506.334	18723.55693
506.542	19208.24364
506.75	19001.36171
506.958	19204.18672
507.166	19098.71263
507.374	19340.10238
507.582	19212.30057
507.79	19334.01621
507.998	19413.13934
508.206	19626.19456
508.414	19451.68879
508.622	19705.34108
508.83	19579.52139
509.037	19770.28657
509.245	19640.39988
509.453	19991.5394
509.661	19938.75896
509.869	19892.07094
510.077	19549.08356
510.285	20229.08656
510.492	20190.50661
510.7	20460.59811
510.908	20017.93068
511.116	19812.90938
511.324	19979.35904
511.531	20281.88264
511.739	20235.17827
511.947	20261.57612
512.155	20728.73206
512.362	20742.95331
512.57	20539.81193
512.778	20631.2204
512.985	20415.91619
513.193	20631.2204
513.401	20643.40883
513.608	20775.45979
513.816	20584.49946
514.024	20838.44412
514.231	20935.97607
514.439	21236.75906
514.646	21082.29176
514.854	21305.87043
515.061	20844.53959
515.269	21206.27024
515.477	21285.54308
515.684	21421.74405
515.892	21336.36223
516.099	21541.69706
516.307	21476.63608
516.514	21751.13948
516.722	21875.19768
516.929	21828.41995
517.136	22039.95276
517.344	21698.2666
517.551	21409.54621
517.759	21952.48707
517.966	22025.71368
518.173	21716.56845
518.381	22023.67954
518.588	22320.70344
518.796	22245.42277
519.003	22194.56031
519.21	22347.1546
519.418	22609.66458
519.625	22426.51176
519.832	22538.43505
520.039	22754.17203
520.247	22495.69942
520.454	22632.0519
520.661	23120.60639
520.868	22627.98145
521.076	23020.84402
521.283	22807.09463
521.49	22917.01823
521.697	23059.52645
521.904	23138.93095
522.112	22925.16111
522.319	23430.12297
522.526	23004.55705
522.733	23729.52681
522.94	23513.62352
523.147	23609.35002
523.354	23112.46223
523.561	23982.13515
523.768	23485.11055
523.975	23882.30879
524.183	23641.9393
524.39	23898.6065
524.597	23452.52504
524.804	23825.26826
525.011	23888.42041
525.218	24169.58249
525.425	24171.62009
525.632	23857.86257
525.838	24359.0908
526.045	24139.01883
526.252	24624.03279
526.459	24683.14104
526.666	24312.221
526.873	24858.43964
527.08	24393.73459
527.287	24518.05082
527.494	24232.74935
527.701	24787.09504
527.907	24593.46037
528.114	24626.07097
528.321	24670.91158
528.528	25127.53633
528.735	25037.83301
528.941	25205.01083
529.148	24573.07907
529.355	25052.1037
529.562	24778.94156
529.768	25217.24394
529.975	25129.57509
530.182	25235.59374
530.388	25068.4132
530.595	25425.21853
530.802	25380.35941
531.008	25504.74398
531.215	25618.93974
531.422	25886.10012
531.628	25537.37069
531.835	25733.14169
532.042	25808.59986
532.248	26369.51517
532.455	25967.68222
532.661	26228.7641
532.868	26004.39511
533.074	25928.93036
533.281	26402.15422
533.487	26289.95924
533.694	26663.28126
533.9	26848.94147
534.107	26330.75684
534.313	26604.11743
534.52	27299.87941
534.726	26655.12065
534.933	26975.44214
535.139	26924.43314
535.345	26952.99807
535.552	27173.36523
535.758	27354.97586
535.965	26916.27179
536.171	26644.91993
536.377	27242.74334
536.584	27226.41894
536.79	27575.37092
536.996	27944.76845
537.203	27752.92181
537.409	27432.5206
537.615	27628.43115
537.821	27250.90558
538.028	27734.55406
538.234	27528.43372
538.44	27944.76845
538.646	27903.94916
538.853	27779.45318
539.059	28165.20043
539.265	27744.75835
539.471	27791.69849
539.677	28061.10592
539.883	28324.40933
540.09	27993.7522
540.296	28389.72772
540.502	28106.00908
540.708	28067.22904
540.914	28293.79172
541.12	28216.2282
541.326	28463.21221
541.532	28424.42856
541.738	28493.83116
541.944	28742.87409
542.15	28936.81174
542.356	29149.13317
542.562	29249.17313
542.768	29406.38383
542.974	28812.28228
543.18	29051.13727
543.386	29547.26626
543.592	29322.67346
543.798	29298.1732
544.004	29541.14083
544.21	29622.814
544.415	29322.67346
544.621	29851.50806
544.827	29661.60935
545.033	29675.90247
545.239	29504.38846
545.445	29994.44888
545.651	29663.65122
545.856	29814.75273
546.062	30035.29013
546.268	30086.34234
546.474	29471.71998
546.679	29271.63142
546.885	29628.93955
547.091	29829.04643
547.297	29602.39554
547.502	29833.13035
547.708	29933.18786
547.914	30233.37674
548.119	30453.93995
548.325	29708.57267
548.531	29780.03969
548.736	30492.74422
548.942	29988.32273
549.147	30149.64807
549.353	30460.06691
549.559	30082.25813
549.764	30106.76342
549.97	30586.69329
550.175	30386.54412
550.381	30743.962
550.586	30163.94307
550.792	30609.15978
550.997	30225.208
551.203	30925.75005
551.408	30741.9195
551.614	30966.60281
551.819	31213.77442
552.025	31309.78919
552.23	31031.96842
552.435	31297.53179
552.641	31336.34707
552.846	31064.65178
553.052	31183.13213
553.257	31383.33476
553.462	31377.20588
553.668	31258.71708
553.873	31896.1715
554.078	31934.99641
554.283	32161.82973
554.489	31820.56702
554.694	31871.65084
554.899	31994.25683
555.105	31773.57092
555.31	31806.26375
555.515	32251.75254
555.72	32523.58995
555.925	31949.30051
556.131	32409.12734
556.336	32037.17057
556.541	32511.32576
556.746	32341.67942
556.951	32513.36979
557.156	32118.91344
557.361	31951.34396
557.567	32666.67838
557.772	32873.1554
557.977	32039.2141
558.182	32458.18188
558.387	32114.82622
558.592	32537.89828
558.797	32691.20899
559.002	32715.73995
559.207	32867.02205
559.412	32989.69344
559.617	32965.15841
559.822	33339.36047
560.027	33044.89866
560.232	32589.00038
560.437	32644.19229
560.642	32944.71284
560.847	32922.22302
561.051	32999.91649
561.256	33089.88214
561.461	33388.44322
561.666	33204.39155
561.871	33192.12227
562.076	32907.91148
562.281	33169.62884
562.485	33069.43494
562.69	33196.21202
562.895	33171.67369
563.1	33930.51849
563.305	33721.84367
563.509	33887.55314
563.714	33840.49758
563.919	33572.51906
564.123	33359.81141
564.328	33404.80452
564.533	33770.94048
564.737	33560.24656
564.942	33828.22252
565.147	33599.10987
565.351	33701.38723
565.556	33668.6576
565.761	33783.21498
565.965	34000.0847
566.17	34120.81232
566.374	33652.29309
566.579	34243.59926
566.784	34028.7308
566.988	34335.69838
567.193	34106.48805
567.397	34341.8386
567.602	34532.20302
567.806	34202.66878
568.011	34253.83211
568.215	34476.93237
568.42	34513.77914
568.624	34294.76448
568.828	34036.91553
569.033	34612.04368
569.237	34450.32162
569.442	34464.6504
569.646	34108.53436
569.85	34253.83211
570.055	34829.07889
570.259	34591.57112
570.463	34818.84029
570.668	34841.36536
570.872	34759.45856
571.076	35220.27842
571.281	34857.74756
571.485	34720.55527
571.689	34904.84798
571.893	34530.15591
572.098	35421.06605
572.302	35187.50123
572.506	34990.86357
572.71	34687.7958
572.914	35316.5686
573.119	35244.86212
573.323	35052.30821
573.527	35470.24586
573.731	35521.47796
573.935	35523.52732
574.139	35712.09012
574.343	35392.37918
574.547	35505.08334
574.751	35601.40653
574.955	35753.08802
575.159	36070.89716
575.364	35300.17801
575.568	35236.66747
575.772	35328.86174
575.976	35728.48902
576.18	35683.39287
576.383	36448.35002
576.587	36212.41801
576.791	35806.38855
576.995	35990.91945
577.199	35898.6483
577.403	36397.05351
577.607	36345.76089
577.811	35896.59796
578.015	35990.91945
578.219	36331.39965
578.422	35820.73933
578.626	36241.13585
578.83	36068.84634
579.034	36405.26069
579.238	36405.26069
579.442	36688.47061
579.645	36700.78689
579.849	36253.44386
580.053	36807.53794
580.257	36782.90148
580.46	37080.65803
580.664	37136.11855
580.868	36628.94529
581.071	37010.82618
581.275	37025.20266
581.479	36887.61316
581.682	37183.36681
581.886	37033.41795
582.09	37582.05046
582.293	37136.11855
582.497	37343.62863
582.7	37014.93371
582.904	37339.51879
583.107	37086.82005
583.311	37253.21906
583.515	37366.23325
583.718	37421.72115
583.922	37427.88681
584.125	37573.82731
584.329	37279.9295
584.532	37429.94204
584.735	38034.51812
584.939	37205.96515
585.142	37468.99294
585.346	37518.32429
585.549	37372.3983
585.753	37487.49168
585.956	37711.5814
586.159	37464.88219
586.363	37508.04656
586.566	37816.46264
586.769	38040.69084
586.973	37744.4831
587.176	38394.72043
587.379	37738.31387
587.582	38320.60027
587.786	38238.25767
587.989	38487.38655
588.192	37861.71194
588.395	38203.26621
588.599	37985.13903
588.802	38160.04485
589.005	37614.94428
589.208	38448.25868
589.411	37845.2572
589.615	38155.92873
589.818	38755.19011
590.021	38619.20927
590.224	38761.37201
590.427	38596.54963
590.63	38738.70547
590.833	38116.82722
591.036	38174.45156
591.239	39144.8134
591.442	38592.42982
591.645	38650.11054
591.848	38641.87
592.051	38901.51718
592.254	38769.61466
592.457	39192.25106
592.66	39357.29179
592.863	39396.49823
593.066	39235.56818
593.269	39549.23137
593.472	39561.61756
593.675	39576.06857
593.878	39547.16704
594.081	39245.88242
594.284	39421.26204
594.486	39565.74637
594.689	39693.75969
594.892	39270.63758
595.095	39421.26204
595.298	39565.74637
595.5	39390.3075
595.703	39735.06272
595.906	39648.33111
596.109	39925.11022
596.311	40367.52583
596.514	40259.97731
596.717	39989.16799
596.92	40326.1575
597.122	40367.52583
597.325	39935.44143
597.528	40262.04528
597.73	40435.79324
597.933	40200.01118
598.136	40092.50853
598.338	40082.17328
598.541	40382.00579
598.743	39908.58083
598.946	39580.19752
599.148	40078.03925
599.351	39850.73327
599.554	40506.142
599.756	39877.59004
599.959	40733.82997
600.161	40518.55783
600.363	40914.00815
600.566	40524.7659
600.768	40934.72389
600.971	40549.59917
601.173	40206.21415
601.376	40444.06889
601.578	41170.96588
601.78	41015.52637
601.983	40748.32385
602.185	40934.72389
602.388	41021.74268
602.59	40599.27056
602.792	40688.28141
602.995	40334.43082
603.197	40195.87592
603.399	40462.68977
603.601	40539.25177
603.804	40512.34987
604.006	40779.38405
604.208	40791.80885
604.41	41243.52706
604.613	41270.48207
604.815	40928.50904
605.017	41023.81481
605.219	41231.08697
605.421	40446.13783
605.623	40392.34895
605.826	41150.23678
606.028	40615.82914
606.23	40692.42196
606.432	40669.6495
606.634	40905.72218
606.836	41363.80348
607.038	41434.32912
607.24	41150.23678
607.442	41448.85084
607.644	41046.60898
607.846	41088.05657
608.048	41747.71576
608.25	42244.31646
608.452	41712.41986
608.654	41772.63266
608.856	41206.20806
609.058	41710.34374
609.26	41338.91539
609.462	40963.72787
609.664	41141.94547
609.866	40495.79579
610.067	41056.97044
610.269	40932.65226
610.471	41032.10344
610.673	41743.56311
610.875	42011.51047
611.077	41807.93466
611.278	41376.24817
611.48	41065.25982
611.682	41291.21806
611.884	41496.56923
612.085	41255.96758
612.287	41857.77888
612.489	41226.94036
612.69	41600.32705
612.892	41475.82131
613.094	41405.28746
613.295	40735.90049
613.497	41264.2615
613.699	41135.72711
613.9	41627.30909
614.102	41388.69329
614.304	41253.89413
614.505	41440.55264
614.707	41378.32232
614.908	41125.36342
615.11	41571.27179
615.311	41399.06456
615.513	41262.18801
615.714	41340.98934
615.916	41600.32705
616.117	41444.70172
616.319	41660.52059
616.52	41388.69329
616.722	41009.31017
616.923	41535.99361
617.124	41347.21123
617.326	41419.80799
617.527	41853.62492
617.729	41388.69329
617.93	41448.85084
618.131	41770.55619
618.333	41222.79381
618.534	41544.29405
618.735	41785.09178
618.937	41179.25785
619.138	41088.05657
619.339	40895.36498
619.54	41367.95166
619.742	41249.74727
619.943	40889.1508
620.144	41233.16029
620.345	41204.1349
620.546	41764.32683
620.748	41907.63028
620.949	41521.46833
621.15	42080.08861
621.351	41803.7813
621.552	41496.56923
621.753	41197.91547
621.954	41482.04556
622.155	40974.08699
622.356	41506.94364
622.558	41575.4224
622.759	42152.83802
622.96	41704.11546
623.161	41619.0067
623.362	41403.21315
623.563	42489.76723
623.764	42075.93197
623.965	42252.63391
624.166	42269.26941
624.366	41498.64409
624.567	41554.66986
624.768	41791.32151
624.969	40851.8679
625.17	41814.1648
625.371	41338.91539
625.572	41446.77627
625.773	41756.02119
625.973	41882.70368
626.174	41731.10548
626.375	41521.46833
626.576	41405.28746
626.777	41753.94482
626.977	41423.95683
627.178	42098.79412
627.379	42308.782
627.58	41953.3337
627.78	42283.82614
627.981	41845.31716
628.182	42100.87257
628.382	42427.34753
628.583	42304.62256
628.784	42215.20702
628.984	41724.87683
629.185	42036.44639
629.386	41388.69329
629.586	41866.08695
629.787	41457.14923
629.987	41635.61167
630.188	41905.55299
630.388	41795.47472
630.589	42090.48043
630.79	41928.40381
630.99	42373.25983
631.191	42069.6971
631.391	42105.02952
631.591	41785.09178
631.792	41801.70464
631.992	42080.08861
632.193	42167.38976
632.393	41542.21892
632.594	41880.62655
632.794	41635.61167
632.994	41513.16844
633.195	41957.48886
633.395	41911.78488
633.595	41957.48886
633.796	42019.82225
633.996	42065.54059
634.196	41918.01689
634.397	42579.25576
634.597	42127.89362
634.797	42600.07048
634.997	42439.83054
635.198	41978.2654
635.398	41907.63028
635.598	42468.95937
635.798	42396.14203
635.998	42223.52375
636.199	42036.44639
636.399	42631.295
636.599	42356.61921
636.799	42425.26707
636.999	42123.73639
637.199	42564.68622
637.399	42756.22242
637.599	42566.76755
637.799	42433.58898
637.999	42779.13089
638.199	42985.3787
638.399	42979.12686
638.599	42747.89246
638.799	42960.37208
638.999	43248.06368
639.199	42818.7038
639.399	42777.04824
639.599	43133.37361
639.799	42818.7038
639.999	42281.74657
640.199	42323.34043
640.399	42073.85367
640.599	41208.28124
640.799	42454.39464
640.998	42860.36461
641.198	42768.71775
641.398	42446.07222
641.598	43062.49445
641.798	42516.81937
641.997	42154.9168
642.197	42518.9004
642.397	43544.36019
642.597	43677.99127
642.796	43033.31338
642.996	42670.85027
643.196	42512.65736
643.395	42235.99922
643.595	42889.53032
643.795	42564.68622
643.994	42647.94928
644.194	42437.75
644.394	42510.57638
644.593	42954.12072
644.793	42964.53971
644.992	42662.52245
645.192	42891.61368
645.392	42664.60439
645.591	43235.55007
645.791	43260.57777
645.99	42877.03042
646.19	43129.20382
646.389	43004.13491
646.589	43521.39794
646.788	42947.86948
646.987	43068.74788
647.187	43271.00655
647.386	42641.70382
647.586	42795.79259
647.785	43277.26397
647.984	42883.28031
648.184	43239.72122
648.383	42885.36363
648.582	42423.18663
648.782	42512.65736
648.981	42443.99165
649.18	42681.26033
649.38	42539.71136
649.579	43181.33
649.778	43097.93211
649.977	43684.25659
650.177	43277.26397
650.376	43231.37898
650.575	42977.04295
650.774	42933.28372
650.973	43060.41
651.173	43079.17052
651.372	43066.66339
651.571	43070.83238
651.77	43162.56361
651.969	42806.20658
652.168	42839.53355
652.367	43150.05329
652.566	43095.84743
652.765	43027.06063
652.964	43179.24479
653.163	43187.5857
653.362	43102.10149
653.561	42845.78273
653.76	43010.38722
653.959	43125.03408
654.158	43335.67244
654.357	43150.05329
654.556	42843.69966
654.755	43523.48535
654.954	43561.06104
655.153	43097.93211
655.352	43268.92077
655.551	42454.39464
655.749	43223.03695
655.948	43006.219
656.147	43145.88329
656.346	43406.61116
656.545	43573.58725
656.743	43573.58725
656.942	43794.9641
657.141	44269.56107
657.34	43709.31909
657.538	43665.461
657.737	43778.25108
657.936	44183.78854
658.135	43694.69906
658.333	43223.03695
658.532	43439.99947
658.731	43406.61116
658.929	43771.98392
659.128	43408.69783
659.326	43279.34981
659.525	43632.04932
659.724	44093.85685
659.922	43375.31275
660.121	43763.62791
660.319	43515.13579
660.518	43208.43891
660.716	43198.01214
660.915	43648.75473
661.113	43548.53532
661.312	43383.6587
661.51	43147.96828
661.709	43016.63965
661.907	43581.93832
662.105	43462.95593
662.304	43488.00121
662.502	43939.15013
662.701	43767.80589
662.899	43298.12293
663.097	43179.24479
663.296	43075.00142
663.494	43926.60964
663.692	42879.1137
663.891	43006.219
664.089	42985.3787
664.287	43402.43786
664.485	42679.17829
664.684	43243.89242
664.882	42945.78576
665.08	43116.69477
665.278	42583.4186
665.476	42847.86582
665.675	42564.68622
665.873	42770.80035
666.071	43029.14487
666.269	43125.03408
666.467	43600.72903
666.665	44146.13963
666.863	42779.13089
667.061	43421.21812
667.259	42712.49248
667.457	42793.70983
667.655	42554.2798
667.853	42839.53355
668.051	42756.22242
668.249	42991.63065
668.447	42754.13991
668.645	42945.78576
668.843	42916.61507
669.041	43189.67096
669.239	42983.29474
669.437	43091.67812
669.635	43245.97805
669.833	42593.82593
670.031	42150.75925
670.229	42506.41444
670.426	42385.74084
670.624	42687.50652
670.822	42841.6166
671.02	43212.60971
671.218	43131.2887
671.415	43170.90409
671.613	42733.31554
671.811	42662.52245
672.009	42920.78215
672.206	43200.09746
672.404	42464.79795
672.602	42410.70423
672.799	42737.48031
672.997	43154.22334
673.195	43266.835
673.392	43262.6635
673.59	42997.88272
673.788	42466.87866
673.985	42367.0195
674.183	42699.99926
674.38	42712.49248
674.578	42629.21327
674.775	42225.60296
674.973	41957.48886
675.17	41826.62541
675.368	41581.64839
675.565	42406.54354
675.763	42437.75
675.96	42302.54286
676.158	42377.42012
676.355	41845.31716
676.553	42766.63517
676.75	42011.51047
676.947	41882.70368
677.145	41760.17399
677.342	41621.08228
677.539	41816.24153
677.737	42092.55884
677.934	42132.05089
678.131	42554.2798
678.329	42502.25256
678.526	42119.57922
678.723	42263.031
678.92	41982.42086
679.118	42244.31646
679.315	41666.74809
679.512	42048.91503
679.709	42294.22419
679.906	41467.52249
680.104	41654.29319
680.301	41743.56311
680.498	41100.49176
680.695	41216.57406
680.892	41567.12123
681.089	41266.33501
681.286	41915.93954
681.483	41602.40252
681.68	42233.91995
681.877	42078.01028
682.075	41546.36918
682.272	41729.02925
682.469	42003.19891
682.665	41506.94364
682.862	41419.80799
683.059	41332.69364
683.256	41853.62492
683.453	40841.5122
683.65	40943.01051
683.847	41297.4391
684.044	40613.75927
684.241	40868.43761
684.438	41455.07461
684.635	40597.20079
684.831	41021.74268
685.028	40963.72787
685.225	40980.3026
685.422	40816.6597
685.619	40930.58065
685.815	40462.68977
686.012	40717.26622
686.209	39797.02502
686.405	40156.59313
686.602	40007.76732
686.799	39417.13464
686.996	39557.48879
687.192	39555.42442
687.389	39474.9219
687.586	39309.83614
687.782	39846.60161
687.979	40572.36442
688.175	39980.9019
688.372	40353.04641
688.568	40460.62074
688.765	40355.11487
688.962	40288.92977
689.158	40309.6114
689.355	40733.82997
689.551	40307.54319
689.748	40669.6495
689.944	40479.24242
690.14	40446.13783
690.337	39848.66743
690.533	40365.45731
690.73	40156.59313
690.926	40096.64271
691.123	39834.2069
691.319	40379.93719
691.515	40168.9978
691.712	39600.84289
691.908	39962.30382
692.104	40034.63454
692.301	39355.22839
692.497	39320.15214
692.693	39908.58083
692.889	39602.90748
693.086	39130.37686
693.282	39200.50161
693.478	38870.59911
693.674	40003.63406
693.87	39828.00969
694.067	39683.43457
694.263	39596.71373
694.459	39373.79933
694.655	39468.73003
694.851	38897.39465
695.047	38794.34349
695.243	39522.39589
695.439	39217.00318
695.635	39285.07875
695.831	39483.17786
696.027	38903.57846
696.224	38829.37828
696.42	38944.80602
696.615	39728.867
696.811	39819.74688
697.007	39394.43464
697.203	39547.16704
697.399	39346.9749
697.595	38757.25074
697.791	39169.56284
697.987	39025.21059
698.183	39163.37535
698.379	38709.85876
698.575	39307.77297
698.77	38483.26767
698.966	38571.83127
699.162	38022.1729
699.358	38891.21093
699.554	38825.2564
699.749	38845.86617
699.945	39295.39416
700.141	38751.0689
700.337	38973.66754
700.532	39132.43919
700.728	38378.24831
700.924	38316.48282
701.119	38059.20945
701.315	37853.4845
701.511	37929.59321
701.706	38530.63685
701.902	38106.53785
702.097	37941.93621
702.293	38623.32932
702.489	38258.84204
702.684	38046.86363
702.88	37906.96514
703.075	38129.17473
703.271	37680.73789
703.466	37596.44126
703.662	37865.8257
703.857	38075.671
704.053	38277.36869
704.248	38485.32711
704.443	38542.9948
704.639	38157.98679
704.834	38090.0753
705.03	38304.13065
705.225	38162.10293
705.42	38131.23268
705.616	38370.01246
705.811	37429.94204
706.006	37987.19639
706.202	38127.11679
706.397	37691.01886
706.592	37828.80297
706.787	37725.97564
706.983	38197.0915
707.178	38240.31607
707.373	37281.9842
707.568	37481.32536
707.763	37512.15763
707.959	37719.80663
708.154	37697.18754
708.349	37462.82683
708.544	37623.16805
708.739	37060.1184
708.934	37154.60655
709.129	37691.01886
709.324	37508.04656
709.519	37493.65807
709.714	37448.4395
709.909	37923.42182
710.104	37627.27997
710.299	37333.35409
710.494	37491.6026
710.689	36887.61316
710.884	36639.20789
711.079	36766.4777
711.274	36395.00173
711.469	37027.25647
711.664	37261.43753
711.859	37197.74747
712.054	36992.34264
712.249	36756.21306
712.443	36417.57164
712.638	36672.04928
712.833	36304.72957
713.028	36657.68097
713.223	36583.79181
713.417	37033.41795
713.612	37070.38813
713.807	37281.9842
714.002	36789.0605
714.196	37014.93371
714.391	36809.59102
714.586	37041.63334
714.78	36719.26174
714.975	36433.9866
715.17	36333.45123
715.364	36885.55982
715.559	37249.10987
715.754	36639.20789
715.948	36725.42015
716.143	36159.08801
716.337	36495.54628
716.532	36524.27609
716.726	36456.55783
716.921	36934.84188
717.115	36762.37183
717.31	36489.39006
717.504	36836.2817
717.699	36669.99665
717.893	36163.19017
718.088	36064.74472
718.282	35634.20004
718.476	35312.47092
718.671	35173.1616
718.865	35345.25288
719.059	35923.25282
719.254	35851.49191
719.448	35644.4483
719.642	36475.02576
719.837	35511.23129
720.031	35861.74305
720.225	35414.91878
720.419	35783.83787
720.614	35429.26248
720.808	35171.1131
721.002	34892.56068
721.196	35101.46693
721.39	34765.60133
721.585	34767.64893
721.779	34689.84324
721.973	35257.15423
722.167	34738.98295
722.361	34867.98658
722.555	34759.45856
722.749	34112.627
722.943	34360.25947
723.137	33863.00219
723.331	33834.36003
723.525	34196.52934
723.719	33920.2885
723.913	34237.45959
724.107	34143.32226
724.301	34683.70094
724.495	34736.93542
724.689	35160.87067
724.883	34900.75219
725.077	34861.84316
725.271	34829.07889
725.465	35064.59764
725.659	34337.74512
725.853	34607.94913
726.046	34460.55645
726.24	34288.62453
726.434	33623.6557
726.628	34530.15591
726.822	33934.61051
727.015	34614.09096
727.209	33985.76191
727.403	34202.66878
727.596	33940.74856
727.79	34390.96162
727.984	34569.05178
728.177	34997.00784
728.371	34706.22287
728.565	34724.65028
728.758	35154.72527
728.952	34970.38294
729.146	34630.46934
729.339	34710.31782
729.533	34569.05178
729.726	34071.70127
729.92	34386.86795
730.113	34343.88535
730.307	33934.61051
730.5	33856.86453
730.694	34182.20411
730.887	33895.73689
731.081	33918.24252
731.274	34393.00846
731.468	33908.01264
731.661	33897.78284
731.854	33889.59907
732.048	34886.4171
732.241	34374.58703
732.435	33979.62363
732.628	33918.24252
732.821	33961.20896
733.014	34145.36864
733.208	34319.32464
733.401	34000.0847
733.594	33224.84058
733.788	33136.91174
733.981	33410.94006
734.174	33654.33864
734.367	33601.15534
734.56	33750.48325
734.754	33601.15534
734.947	33893.69095
735.14	33936.65652
735.333	33560.24656
735.526	33601.15534
735.719	33435.48248
735.912	33541.83802
736.105	33445.70861
736.298	33388.44322
736.491	33813.90176
736.684	33678.88552
736.877	33721.84367
737.07	34022.59229
737.263	33938.70254
737.456	33742.30045
737.649	33322.99993
737.842	33345.49572
738.035	33224.84058
738.228	33102.15059
738.421	33204.39155
738.614	33431.39204
738.807	33367.99187
739	33126.68779
739.192	32838.40006
739.385	33188.03253
739.578	32877.24431
739.771	32476.57766
739.964	32278.32141
740.156	32633.97143
740.349	32783.2019
740.542	32893.60006
740.735	32711.65143
740.927	32854.75542
741.12	33087.83741
741.313	32830.22244
741.505	32854.75542
741.698	32302.84685
741.891	32535.85423
742.083	32895.64454
742.276	32709.60717
742.468	33036.71999
742.661	33177.80823
742.854	33455.93482
743.046	33083.74795
743.239	33114.41914
743.431	33646.15646
743.624	33169.62884
743.816	33216.66094
744.009	33151.22539
744.201	33030.58601
744.393	32541.98639
744.586	32388.68832
744.778	32711.65143
744.971	31986.08289
745.163	32965.15841
745.355	32871.11095
745.548	32627.83895
745.74	32458.18188
745.932	32625.79479
746.125	32625.79479
746.317	32928.35658
746.509	33065.34554
746.702	32636.0156
746.894	32846.57772
747.086	32251.75254
747.278	31988.12637
747.471	31581.50972
747.663	31873.69422
747.855	32190.4411
748.047	32135.2624
748.239	32638.05977
748.431	32067.82377
748.623	32092.34666
748.815	31730.66227
749.008	32221.09658
749.2	32329.41642
749.392	31559.03548
749.584	31356.7764
749.776	32266.05881
749.968	31336.34707
750.16	31448.71035
750.352	31350.64758
750.544	31001.32811
750.736	31046.26735
750.928	31336.34707
751.12	30942.09109
751.311	30739.877
751.503	30886.94045
751.695	30672.47526
751.887	30768.47212
752.079	31503.87231
752.271	31183.13213
752.463	31023.79764
752.654	31117.76304
752.846	30991.11474
753.038	30521.33713
753.23	30764.38708
753.421	29886.22176
753.613	30008.74327
753.805	30748.04701
753.997	29992.40683
754.188	30592.8205
754.38	30835.87595
754.572	30835.87595
754.763	31336.34707
754.955	30968.64547
755.146	31571.29413
755.338	30858.34422
755.53	30670.4328
755.721	30880.81266
755.913	30641.83858
756.104	30786.85483
756.296	30719.45208
756.487	30223.16582
756.679	30543.80316
756.87	30333.44533
757.062	30184.3646
757.253	30598.94772
757.445	30652.05077
757.636	30359.99462
757.827	29890.30574
758.019	30143.52166
758.21	30055.71093
758.401	30100.63708
758.593	29978.11251
758.784	29976.07047
758.975	29747.36889
759.167	29880.09579
759.358	29675.90247
759.549	29833.13035
759.74	29524.8064
759.932	29479.88708
760.123	29255.2981
760.314	29445.17704
760.505	28942.93624
760.696	29400.25862
760.888	29702.44699
761.079	29281.83977
761.27	29641.19069
761.461	29645.27442
761.652	29773.9139
761.843	29243.04816
762.034	29028.68021
762.225	29124.63397
762.416	28912.31384
762.607	29063.38663
762.798	29012.34789
762.989	29410.46731
763.18	29637.10698
763.371	29314.50669
763.562	29351.25729
763.753	29424.75951
763.944	28993.9741
764.135	28742.87409
764.326	29181.79901
764.517	28967.43433
764.708	28971.51736
764.899	28844.94537
765.089	28465.25347
765.28	28550.98717
765.471	29377.7996
765.662	28589.77207
765.853	28293.79172
766.043	28444.84096
766.234	28589.77207
766.425	28016.2033
766.615	27869.25312
766.806	28181.52924
766.997	27612.10484
767.187	27534.55593
767.378	27669.24727
767.569	27605.98249
767.759	27271.31125
767.95	27781.49406
768.141	27559.04486
768.331	27430.47993
768.522	27230.50004
768.712	27534.55593
768.903	27616.18641
769.093	26828.53865
769.284	27530.47445
769.474	27430.47993
769.665	27452.92742
769.855	27589.65629
770.046	28420.34609
770.236	27793.73938
770.426	27730.47235
770.617	27703.94135
770.807	27373.34155
770.998	27116.23147
771.188	26983.60366
771.378	27008.08835
771.569	27228.45949
771.759	26659.20095
771.949	26563.31554
772.139	27124.39337
772.33	26844.86089
772.52	26934.63487
772.71	26971.36138
772.9	26863.22353
773.09	26663.28126
773.281	27006.04795
773.471	27114.191
773.661	26471.51357
773.851	26159.41144
774.041	25861.62606
774.231	25741.2992
774.421	25700.51194
774.611	25924.85125
774.802	26141.05372
774.992	26324.63716
775.182	26336.87653
775.372	25951.36557
775.562	25655.64684
775.752	26208.36605
775.942	26067.62423
776.131	26094.14017
776.321	25463.96131
776.511	25855.50759
776.701	25237.63262
776.891	25498.62652
777.081	24992.98299
777.271	25625.05754
777.461	25486.39167
777.651	25274.3328
777.84	25092.87771
778.03	25033.75569
778.22	25202.97199
778.41	25449.68757
778.599	25270.25497
778.789	25056.18106
778.979	24833.9783
779.169	24736.13641
779.358	24805.44052
779.548	24776.90319
779.738	24526.20303
779.927	25037.83301
780.117	25333.46232
780.307	25088.80027
780.496	25078.60671
780.686	25052.1037
780.875	24583.26969
781.065	24438.56884
781.254	24267.39034
781.444	24556.77421
781.633	24740.21305
781.823	24463.02442
782.012	24281.6545
782.202	24385.58304
782.391	24585.30782
782.581	24173.6577
782.77	23902.68096
782.96	24041.21926
783.149	23552.32065
783.338	23727.48983
783.528	24033.06959
783.717	24055.4813
783.906	24173.6577
784.096	23593.05567
784.285	23595.09246
784.474	23660.27111
784.663	23474.92749
784.853	22955.6974
785.042	23073.77817
785.231	23136.89488
785.42	23344.59127
785.61	22953.66163
785.799	23063.59835
785.988	23265.17399
786.177	22906.8397
786.366	22794.88152
786.555	22947.55432
786.744	22792.84601
786.933	22976.05535
787.122	23346.62768
787.312	23401.61179
787.501	23246.84762
787.69	23098.21007
787.879	23442.34223
788.068	22739.92403
788.257	22477.38464
788.445	22404.12841
788.634	22862.05519
788.823	22845.77032
789.012	22878.34027
789.201	22953.66163
789.39	22912.94681
789.579	22607.62939
789.768	22216.93951
789.957	22271.87216
790.145	22430.58151
790.334	22216.93951
790.523	22440.75594
790.712	22393.95431
790.9	22662.58075
791.089	22326.8075
791.278	22324.77281
791.467	21956.55509
791.655	22410.23292
791.844	22314.59941
792.033	22098.94519
792.221	22231.18105
792.41	22162.00956
792.599	21700.30012
792.787	21883.33315
792.976	21891.46867
793.164	22188.45698
793.353	22275.94135
793.541	22666.65132
793.73	22646.2986
793.918	22819.30787
794.107	22459.07014
794.295	22316.63409
794.484	22288.14902
794.672	21663.6973
794.861	21464.4376
795.049	21679.96506
795.238	21690.13254
795.426	21944.35109
795.614	21751.13948
795.803	21926.04534
795.991	21631.16252
796.179	21466.47067
796.368	21185.94486
796.556	21586.42883
796.744	21092.45336
796.932	21269.28148
797.121	20887.20891
797.309	20777.49148
797.497	20917.68811
797.685	21494.93407
797.874	21122.93878
798.062	21403.44735
798.25	20895.3366
798.438	21407.51325
798.626	21322.13261
798.814	21124.97117
799.002	21364.82205
799.19	21066.03342
799.378	21047.74309
799.566	21023.3565
799.755	20805.93558
799.943	20700.29017
800.131	20785.61829
800.318	20732.79526
800.506	20436.2259
800.694	20359.05124
800.882	20523.56242
801.07	20519.50009
801.258	20419.9781
801.446	21007.0991
801.634	20631.2204
801.822	20984.74561
802.01	21204.23768
802.197	21253.02014
802.385	21003.03479
802.573	20608.87533
802.761	20196.59808
802.949	20424.04003
803.136	20464.6602
803.324	20422.00906
803.512	20342.80471
803.699	20422.00906
803.887	20637.3146
804.075	20556.06171
804.262	20781.55488
804.45	20651.53454
804.638	20718.57415
804.825	21194.07496
805.013	20688.10104
805.201	20734.82686
805.388	20373.26717
805.576	20598.71864
805.763	20024.02108
805.951	20180.35424
806.138	19995.59955
806.326	19989.50933
806.513	19989.50933
806.701	19983.41915
806.888	20239.23943
807.075	20696.22711
807.263	20330.62
807.45	21289.60852
807.638	20903.46437
807.825	21039.61416
808.012	20610.90668
808.2	20513.40662
808.387	20856.73064
808.574	20726.70047
808.761	20856.73064
808.949	20767.33307
809.136	20990.84196
809.323	21155.45756
809.51	21059.9366
809.698	20755.14312
809.885	20726.70047
810.072	20797.80862
810.259	20570.28048
810.446	20346.86632
810.633	20058.53405
810.82	19944.84886
811.008	20255.48424
811.195	20560.12419
811.382	20700.29017
811.569	20864.85808
811.756	20759.20642
811.943	20974.58509
812.13	20856.73064
812.317	20994.90622
812.504	21159.52248
812.691	21141.23046
812.878	21230.66123
813.064	20895.3366
813.251	20562.15544
813.438	20913.62416
813.625	20604.81264
813.812	20820.15794
813.999	20954.26437
814.186	21206.27024
814.372	20889.24083
814.559	20919.72009
814.746	20409.82336
814.933	20614.96939
815.12	20543.87435
815.306	20740.92169
815.493	20290.00536
815.68	20578.40559
815.866	20160.04983
816.053	20287.97467
816.24	19910.3399
816.426	20001.68981
816.613	20095.07852
816.799	20484.97091
816.986	19944.84886
817.173	20107.26031
817.359	20277.8213
817.546	20220.96434
817.732	19829.14713
817.919	19938.75896
818.105	19916.42963
818.292	20269.69867
818.478	20290.00536
818.665	20688.10104
818.851	20482.93982
819.037	20669.81762
819.224	20596.68732
819.41	20432.16393
819.597	20235.17827
819.783	20387.48331
819.969	20340.77392
820.156	20249.39241
820.342	20442.3189
820.528	20367.1746
820.714	20344.83552
820.901	20568.24922
821.087	20336.71234
821.273	20639.346
821.459	20019.96081
821.646	19861.62343
821.832	19780.43469
822.018	20121.47259
822.204	19715.48853
822.39	19652.57603
822.576	19384.73544
822.762	19273.15654
822.948	19080.45862
823.134	19370.53379
823.32	19350.24608
823.507	19814.93908
823.693	19934.69904
823.879	19924.54933
824.065	20011.84032
824.25	19778.40506
824.436	19542.99611
824.622	19540.96696
824.808	19289.38542
824.994	19218.386
825.18	18719.50194
825.366	19185.9308
825.552	19486.18168
825.738	20007.7801
825.923	19709.40005
826.109	19409.08159
826.295	19001.36171
826.481	19074.37403
826.667	18790.46657
826.852	18871.57496
827.038	18841.15857
827.224	19141.30661
827.409	18711.39201
827.595	18841.15857
827.781	18899.96441
827.966	18664.7611
828.152	18697.19977
828.338	18689.09001
828.523	18318.13464
828.709	18828.99226
828.894	18810.74307
829.08	18541.09782
829.266	18239.09502
829.451	18474.20402
829.637	18247.20139
829.822	18332.32184
830.008	18085.0852
830.193	18208.69667
830.378	18310.02775
830.564	18822.90916
830.749	18192.48455
830.935	18305.97433
831.12	18289.76079
831.305	18650.56949
831.491	17997.95733
831.676	17949.33069
831.861	18172.21974
832.047	18269.4942
832.232	17997.95733
832.417	18443.79913
832.602	18139.7968
832.788	18156.00815
832.973	18320.16137
833.158	18083.0589
833.343	17817.64364
833.528	17882.47236
833.714	17268.7608
833.899	17534.05858
834.084	17408.4912
834.269	17819.66949
834.454	17467.22283
834.639	17724.4585
834.824	17876.39451
835.009	17410.51639
835.194	17303.1858
835.379	17655.58709
835.564	16884.0667
835.749	17702.17615
835.934	17574.56679
836.119	18139.7968
836.304	17461.14702
836.489	17295.08572
836.674	17210.03777
836.859	17639.38261
837.044	17451.02074
837.228	17785.23061
837.413	17169.54056
837.598	17532.0332
837.783	17536.08396
837.968	17497.60229
838.152	16794.99337
838.337	17080.45068
838.522	16977.19412
838.707	17236.36158
838.891	16778.79873
839.076	16952.89948
839.261	17021.7353
839.445	16790.9447
839.63	16564.2341
839.815	16661.39223
839.999	16125.0568
840.184	16483.27283
840.368	16487.32082
840.553	16238.38456
840.737	16612.81252
840.922	16641.15052
841.106	16440.76951
841.291	16448.86531
841.475	16807.13945
841.66	16570.30633
841.844	16078.51294
842.029	16509.58487
842.213	16159.45932
842.397	16236.3608
842.582	15959.12143
842.766	16159.45932
842.951	15619.18258
843.135	16029.9463
843.319	15789.1482
843.504	15746.65615
843.688	15886.2747
843.872	15904.48623
844.056	16013.7576
844.241	15985.42761
844.425	15582.76218
844.609	15675.83706
844.793	15649.53311
844.977	15831.64072
845.161	15457.31585
845.346	15453.26924
845.53	15515.99206
845.714	15511.94541
845.898	15052.65977
846.082	15390.54692
846.266	15163.93975
846.45	15261.0568
846.634	15376.38387
846.818	15607.04242
847.002	15422.91967
847.186	15550.38869
847.37	14909.00639
847.554	14900.91318
847.738	14967.68193
847.922	14880.68013
848.106	14876.63351
848.29	15141.68377
848.473	15026.35716
848.657	14921.14619
848.841	14645.97162
849.025	14775.46726
849.209	14573.12855
849.392	14552.8941
849.576	14453.74346
849.76	14194.7201
849.944	14494.2135
850.127	14801.77065
850.311	14759.2805
850.495	14534.683
850.678	14569.08167
850.862	14645.97162
851.046	14702.62642
851.229	14506.3544
851.413	14223.05221
851.596	14403.1551
851.78	14263.526
851.964	14445.64938
852.147	14332.32976
852.331	14113.76898
852.514	14131.98328
852.698	14063.17277
852.881	13844.57953
853.065	14233.17073
853.248	14105.67368
853.431	14293.88085
853.615	14233.17073
853.798	14429.46116
853.982	14156.26874
854.165	14340.42418
854.348	13917.44732
854.532	14295.90449
854.715	14129.95948
854.898	13992.33562
855.081	13496.37861
855.265	14101.62602
855.448	13844.57953
855.631	13409.31225
855.814	13528.77362
855.997	13532.82293
856.181	13569.26608
856.364	13662.39346
856.547	13279.71153
856.73	13439.68504
856.913	13172.37273
857.096	13194.65162
857.279	13123.76232
857.462	12963.73356
857.645	12651.68417
857.828	12898.90282
858.011	12696.27088
858.194	13135.91518
858.377	12904.98093
858.56	12994.12114
858.743	12929.29289
858.926	13026.53332
859.109	13050.84162
859.292	13168.32197
859.475	12990.06953
859.658	13273.63607
859.841	12981.96625
860.023	13024.5076
860.206	13018.43039
860.389	13334.38889
860.572	13030.58475
860.755	12981.96625
860.937	12852.30238
861.12	12755.03995
861.303	12894.85072
861.486	12742.88123
861.668	12882.6943
861.851	12722.61624
862.034	12339.49222
862.216	12623.30929
862.399	12256.34941
862.581	12513.85202
862.764	12158.99616
862.947	12185.36433
863.129	12446.95232
863.312	12475.33488
863.494	12169.13791
863.677	12536.15035
863.859	12221.87206
864.042	11941.91666
864.224	11736.92466
864.406	11874.9485
864.589	11698.35202
864.771	11781.58377
864.954	11479.03486
865.136	11911.4777
865.318	11365.27143
865.501	11964.2374
865.683	11619.16653
865.865	11706.47284
866.048	11519.65733
866.23	11647.59367
866.412	11397.77839
866.594	11698.35202
866.777	11296.18565
866.959	11330.72999
867.141	11361.20788
867.323	11493.25316
867.505	11253.50917
867.687	11298.21775
867.869	10995.31925
868.052	11074.62438
868.234	11068.52458
868.416	11334.79384
868.598	11454.65955
868.78	11495.28431
868.962	11477.00364
869.144	11619.16653
869.326	10997.35292
869.508	11306.34605
869.69	11422.15697
869.872	11379.49354
870.054	11200.66534
870.236	11359.17609
870.417	11273.83187
870.599	11151.88015
870.781	11145.78157
870.963	11062.42467
871.145	11141.7158
871.327	11196.60014
871.508	11168.14255
871.69	11501.37769
871.872	11452.62821
872.054	11594.79898
872.235	11121.3863
872.417	11267.73517
872.599	10964.81279
872.78	11420.12547
872.962	11223.0232
873.144	11147.81444
873.325	10952.6095
873.507	11409.96786
873.689	11070.55785
873.87	11371.36668
874.052	11099.02261
874.233	11084.7905
874.415	10879.38121
874.596	11119.35329
874.778	10763.40581
874.959	11025.8232
875.141	10732.8796
875.322	11155.94581
875.503	10850.89953
875.685	10972.94809
875.866	10749.16058
876.048	10972.94809
876.229	10932.26979
876.41	10881.41553
876.592	10726.77404
876.773	10757.30078
876.954	10716.59786
877.136	10903.79228
877.317	10722.7036
877.498	10911.92894
877.679	10584.27985
877.86	10785.78999
878.042	11066.49129
878.223	11125.45228
878.404	11127.48526
878.585	10885.48413
878.766	10620.92695
878.947	10928.20171
879.128	10692.1738
879.309	10802.0685
879.49	10981.08321
879.672	11082.7573
879.853	11127.48526
880.034	11227.08813
880.215	11070.55785
880.396	11021.75615
880.576	11170.17531
880.757	11452.62821
880.938	10830.55409
881.119	10924.13358
881.3	11088.85687
881.481	11164.07701
881.662	10869.20944
881.843	11271.79964
882.023	11070.55785
882.204	10649.42749
882.385	10396.90852
882.566	10441.72458
882.747	10775.61554
882.927	10877.34688
883.108	10956.67731
883.289	11399.81
883.469	10879.38121
883.65	10867.17505
883.831	10610.7476
884.011	10861.07182
884.192	10993.28556
884.373	11019.72261
884.553	11202.69793
884.734	11328.69805
884.914	10972.94809
885.095	11208.79562
885.275	10779.68536
885.456	10832.58868
885.636	10981.08321
885.817	11170.17531
885.997	11042.09096
886.178	11218.95823
886.358	11255.54149
886.538	11446.53414
886.719	11121.3863
886.899	11267.73517
887.08	10985.15071
887.26	10948.54165
887.44	10954.64341
887.621	11367.30319
887.801	10895.65544
887.981	11275.86408
888.161	10981.08321
888.342	11023.78968
888.522	10826.48486
888.702	10989.21816
888.882	10736.94992
889.062	10972.94809
889.242	10720.66837
889.423	11094.95635
889.603	10777.65045
889.783	11379.49354
889.963	11068.52458
890.143	11160.01143
890.323	11157.97863
890.503	11237.25028
890.683	10899.72388
890.863	11239.28268
891.043	11135.61706
891.223	11411.9994
891.403	11143.74869
891.583	11227.08813
891.763	10761.37081
891.943	11038.02409
892.122	10891.58695
892.302	11218.95823
892.482	10863.10624
892.662	11048.19119
892.842	11111.22115
893.022	11060.39135
893.201	11046.15779
893.381	11460.75351
893.561	11070.55785
893.741	10834.62327
893.92	10710.49201
894.1	10741.02019
894.28	10409.13171
894.459	10468.20386
894.639	10301.14383
894.819	10631.10599
894.998	10400.98297
895.178	10582.24378
895.357	10372.46074
895.537	10447.83538
895.716	10168.6544
895.896	10374.49812
896.075	10268.53636
896.255	10592.424
896.434	10665.71243
896.614	10649.42749
896.793	10333.74786
896.973	10850.89953
897.152	10431.53967
897.331	10598.53198
897.511	10521.1559
897.69	10700.31534
897.87	10677.92562
898.049	10962.77894
898.228	10867.17505
898.407	10920.06541
898.587	10620.92695
898.766	10883.44984
898.945	10684.03206
899.124	10602.6039
899.304	10248.15495
899.483	10508.93696
899.662	10221.65708
899.841	10565.95478
900.02	10325.59717
900.199	10378.57286
900.378	10517.08297
900.557	10356.16116
900.737	10380.61021
900.916	10529.30161
901.095	10366.34849
901.274	10221.65708
901.453	10221.65708
901.632	10233.88715
901.811	10152.34401
901.989	10515.04649
902.168	9776.95296
902.347	10168.6544
902.526	9613.58242
902.705	9807.57407
902.884	9754.49532
903.063	10003.47023
903.242	9674.85791
903.42	9870.84704
903.599	9838.19181
903.778	10099.32908
903.957	9819.82157
904.135	9723.8683
904.314	9315.17104
904.493	9515.51232
904.672	9247.67365
904.85	9392.87295
905.029	9223.12463
905.207	9278.35654
905.386	9427.62668
905.565	9578.85342
905.743	9171.97302
905.922	9255.85612
906.1	9413.31689
906.279	9503.25099
906.457	9333.57627
906.636	9652.39186
906.814	9243.58232
906.993	9317.21613
907.171	9190.38882
907.35	9251.76492
907.528	8801.31196
907.707	8936.53708
907.885	8830.00262
908.063	9071.68492
908.242	9024.59661
908.42	8887.37334
908.598	8604.4793
908.777	8848.44475
908.955	8866.88542
909.133	9122.85747
909.311	8544.98574
909.49	8877.12961
909.668	8571.65722
909.846	8489.5809
910.024	8469.05707
910.202	8803.36141
910.38	8659.8557
910.559	8959.06704
910.737	8579.86319
910.915	8924.24711
911.093	8559.3477
911.271	8444.42595
911.449	8267.82153
911.627	8598.32552
911.805	8259.60386
911.983	8352.03458
912.161	8014.98253
912.339	8393.10224
912.517	8144.52323
912.695	8189.7409
912.872	8095.18382
913.05	8442.37323
913.228	8045.83282
913.406	8097.23986
913.584	7984.12766
913.762	7980.01333
913.939	8008.81192
914.117	8052.00233
914.295	7893.59349
914.473	7918.28857
914.65	7658.84083
914.828	7733.00266
915.006	7248.38941
915.184	7568.16126
915.361	7357.7896
915.539	7543.4233
915.716	7504.24854
915.894	7465.06601
916.072	7335.08897
916.249	7456.81606
916.427	7594.95725
916.604	7679.44408
916.782	7320.64173
916.959	7415.56112
917.137	7072.80668
917.314	6990.1237
917.492	6735.64687
917.669	7227.74094
917.847	7264.9066
918.024	7289.67975
918.201	7035.60378
918.379	7227.74094
918.556	6928.08783
918.733	7279.35799
918.911	6828.78806
919.088	7322.70569
919.265	7010.79781
919.442	7155.45385
919.62	6692.16513
919.797	7273.16467
919.974	7112.06853
920.151	7097.60458
920.328	6688.02348
920.506	6894.99371
920.683	6890.85654
920.86	6592.74022
921.037	6574.09214
921.214	6572.02001
921.391	6292.07004
921.568	6729.43582
921.745	6482.89674
921.922	6698.37743
922.099	6198.65889
922.276	6588.59636
922.453	6275.46708
922.63	6260.93826
922.807	6065.72561
922.984	6065.72561
923.161	5953.48821
923.338	6159.20436
923.514	5961.80444
923.691	5970.12031
923.868	5878.62508
924.045	5780.84109
924.222	5564.28272
924.399	5870.30507
924.575	5449.65358
924.752	5797.48886
924.929	5608.03141
925.105	5493.42947
925.282	5487.17641
925.459	5549.69751
925.635	5330.78105
925.812	5547.61381
925.989	5320.35
926.165	5372.4994
926.342	5303.65911
926.518	5186.78091
926.695	5032.22273
926.871	5126.22596
927.048	4904.72146
927.224	4890.0847
927.401	4737.37756
927.577	5076.09675
927.754	4877.53801
927.93	5086.54144
928.107	4777.13492
928.283	5025.95418
928.459	5061.47321
928.636	5149.19739
928.812	4898.4487
928.988	5078.18573
929.165	4517.51947
929.341	4697.61204
929.517	4597.11562
929.693	4726.91374
929.87	4354.0382
930.046	4754.1185
930.222	4486.09113
930.398	4925.62917
930.574	4463.04053
930.751	4695.51889
930.927	4328.87546
931.103	4354.0382
931.279	4230.29157
931.455	4375.00476
931.631	4163.14367
931.807	4437.89139
931.983	3873.32437
932.159	3984.67796
932.335	3940.56352
932.511	4135.85866
932.687	3690.41545
932.863	3873.32437
933.039	3740.88784
933.215	3837.59524
933.391	3572.6039
933.566	3608.37436
933.742	3366.29466
933.918	3612.5823
934.094	3576.81247
934.27	3475.78646
934.445	3307.31787
934.621	3473.6813
934.797	3113.44391
934.973	3471.57613
935.148	2970.05856
935.324	3142.95543
935.5	2955.2943
935.675	3170.35615
935.851	2794.95082
936.027	3012.23811
936.202	2653.52962
936.378	2784.39906
936.553	2710.52733
936.729	2750.63115
936.904	2442.34984
937.08	2497.2677
937.255	2083.10751
937.431	2241.62901
937.606	1907.62938
937.782	2013.34445
937.957	1687.70173
938.133	1897.05708
938.308	1552.34408
938.483	1740.57291
938.659	1488.89297
938.834	1438.13174
939.009	1452.9371
939.185	1313.34496
939.36	1213.9429
939.535	1298.54007
939.71	1123.00677
939.886	1378.91046
940.061	970.7617
940.236	1125.12148
940.411	1051.10962
940.586	1051.10962
940.761	852.3727
940.937	966.53312
941.112	970.7617
941.287	1015.1634
941.462	877.73969
941.637	1017.27783
941.812	877.73969
941.987	801.64253
942.162	702.31221
942.337	704.42538
942.512	831.2345
942.687	759.37154
942.862	708.65175
943.037	759.37154
943.212	689.63343
943.386	767.82543
943.561	782.6201
943.736	951.73331
943.911	723.44439
944.086	723.44439
944.26	647.37382
944.435	708.65175
944.61	729.78425
944.785	820.66573
944.959	603.00642
945.134	670.61603
945.309	579.76858
945.483	575.54369
945.658	619.90764
945.833	636.80966
946.007	689.63343
946.182	810.0972
946.357	712.87816
946.531	776.27947
946.706	628.35855
946.88	782.6201
947.055	687.52034
947.229	693.85964
947.404	567.09406
947.578	676.95506
947.752	695.97277
947.927	818.55201
948.101	685.40726
948.276	803.75619
948.45	717.10462
948.624	746.69103
948.799	609.34428
948.973	824.89321
949.147	645.26097
949.321	810.0972
949.496	632.58408
949.67	767.82543
949.844	717.10462
950.018	757.2581
950.193	645.26097
950.367	755.14466
950.541	662.16415
950.715	755.14466
950.889	721.33112
951.063	729.78425
951.237	598.78124
951.411	805.86985
951.585	564.98169
951.759	750.91783
951.933	624.13307
952.107	871.39783
952.281	786.84724
952.455	780.50655
952.629	664.2771
952.803	763.59846
952.977	831.2345
953.151	856.60045
953.325	765.71194
953.499	846.03115
953.672	710.76495
953.846	797.41526
954.02	634.69687
954.194	793.18802
954.368	653.71246
954.541	829.12073
954.715	653.71246
954.889	700.19905
955.062	740.35091
955.236	856.60045
955.41	717.10462
955.583	839.68967
955.757	622.02035
955.93	731.89756
956.104	653.71246
956.278	812.21088
956.451	738.23756
956.625	725.55767
956.798	723.44439
956.972	848.14499
957.145	782.6201
957.319	886.19561
957.492	700.19905
957.665	769.93892
957.839	657.93829
958.012	799.52889
958.185	581.88105
958.359	877.73969
958.532	691.74653
958.705	795.30164
958.879	651.59957
959.052	767.82543
959.225	683.29419
959.398	776.27947
959.572	679.06809
959.745	729.78425
959.918	611.45693
960.091	772.05243
960.264	712.87816
960.438	964.41884
960.611	630.47131
960.784	841.80349
960.957	577.65613
961.13	767.82543
961.303	706.53856
961.476	698.0859
961.649	630.47131
961.822	738.23756
961.995	655.82537
962.168	892.53765
962.341	624.13307
962.514	772.05243
962.686	615.68226
962.859	772.05243
963.032	590.33104
963.205	708.65175
963.378	622.02035
963.551	622.02035
963.723	567.09406
963.896	660.05121
964.069	636.80966
964.242	651.59957
964.414	484.72183
964.587	577.65613
964.76	653.71246
964.932	543.85871
965.105	598.78124
965.278	588.21852
965.45	545.97095
965.623	484.72183
965.795	444.59982
965.968	611.45693
966.14	472.05113
966.313	552.30774
966.485	569.20645
966.658	552.30774
966.83	564.98169
967.003	503.72888
967.175	524.84921
967.348	630.47131
967.52	482.61001
967.692	645.26097
967.865	533.29774
968.037	653.71246
968.209	539.63428
968.382	706.53856
968.554	499.50499
968.726	560.75699
968.898	421.37383
969.071	594.55612
969.243	427.708
969.415	484.72183
969.587	463.6043
969.759	385.48296
969.932	474.16288
970.104	512.17684
970.276	497.39307
970.448	537.52208
970.62	472.05113
970.792	455.15771
970.964	370.70575
971.136	482.61001
971.308	427.708
971.48	598.78124
971.652	569.20645
971.824	459.38097
971.996	393.92744
972.168	336.93241
972.339	309.49486
972.511	417.15113
972.683	343.26457
972.855	429.81942
973.027	415.03981
973.199	425.5966
973.37	351.7077
973.542	427.708
973.714	358.04023
973.886	463.6043
974.057	309.49486
974.229	328.48976
974.401	273.61962
974.572	328.48976
974.744	358.04023
974.915	362.262
975.087	347.4861
975.259	410.8172
975.43	292.61173
975.602	377.03874
975.773	366.48384
975.945	358.04023
976.116	282.06037
976.288	353.81853
976.459	248.29916
976.63	377.03874
976.802	201.88557
976.973	252.51905
977.145	332.71105
977.316	400.26098
977.487	265.17916
977.659	351.7077
977.83	328.48976
978.001	298.94277
978.172	282.06037
978.344	307.38441
978.515	271.50948
978.686	258.84902
978.857	256.73901
979.028	298.94277
979.2	317.93686
979.371	241.96948
979.542	237.74979
979.713	326.37915
979.884	210.32369
980.055	222.98148
980.226	225.09118
980.397	279.95016
980.568	163.91802
980.739	233.53017
980.91	235.63997
981.081	212.43327
981.252	301.05315
981.423	222.98148
981.594	189.22898
981.765	163.91802
981.936	172.35468
982.106	235.63997
982.277	189.22898
982.448	191.33836
982.619	163.91802
982.79	231.42039
982.96	191.33836
983.131	212.43327
983.302	197.66663
983.472	210.32369
983.643	191.33836
983.814	172.35468
983.984	155.4817
984.155	132.28355
984.326	121.73979
984.496	149.15468
984.667	132.28355
984.837	128.06598
985.008	178.68239
985.178	138.61006
985.349	187.11962
985.519	172.35468
985.69	172.35468
985.86	138.61006
986.031	147.04571
986.201	147.04571
986.371	210.32369
986.542	185.01029
986.712	151.26366
986.882	138.61006
987.053	45.84105
987.223	193.44776
987.393	79.57023
987.563	138.61006
987.734	256.73901
987.904	92.22017
988.074	94.32857
988.244	203.99507
988.414	193.44776
988.585	92.22017
988.755	168.13631
988.925	119.63111
989.095	170.24549
989.265	75.35377
989.435	81.6785
989.605	142.82785
989.775	88.00344
989.945	117.52244
990.115	166.02716
990.285	88.00344
990.455	123.8485
990.625	147.04571
990.795	115.4138
990.965	106.97945
991.134	130.17476
991.304	62.70491
991.474	111.19658
991.644	153.37267
991.814	147.04571
991.984	191.33836
992.153	125.95723
992.323	85.8951
992.493	113.30518
992.662	104.87091
992.832	52.16483
993.002	88.00344
993.171	71.13739
993.341	18.44046
993.511	79.57023
993.68	130.17476
993.85	88.00344
994.019	140.71894
994.189	149.15468
994.358	69.02924
994.528	111.19658
994.697	149.15468
994.867	54.2728
995.036	134.39237
995.206	109.088
995.375	69.02924
995.544	111.19658
995.714	106.97945
995.883	109.088
996.052	56.38079
996.222	33.19413
996.391	100.65391
996.56	54.2728
996.73	66.92111
996.899	163.91802
997.068	20.54805
997.237	71.13739
997.406	37.40968
997.576	71.13739
997.745	85.8951
997.914	20.54805
998.083	98.54544
998.252	113.30518
998.421	-19.49219
998.59	20.54805
998.759	52.16483
998.928	113.30518
999.097	123.8485
999.266	64.813
999.435	10.01031
999.604	104.87091
999.773	176.57313
999.942	-4.74153
1000.111	41.62532
1000.28	-8.95613
1000.448	47.94895
1000.617	130.17476
1000.786	18.44046
1000.955	64.813
1001.124	20.54805
1001.292	138.61006
1001.461	-11.06339
1001.63	45.84105
1001.798	35.30189
1001.967	134.39237
1002.136	45.84105
1002.304	43.73317
1002.473	28.97868
1002.642	45.84105
1002.81	50.05688
1002.979	1.58054
1003.147	-21.59933
1003.316	24.76332
1003.484	16.33288
1003.653	60.59685
1003.821	104.87091
1003.99	28.97868
1004.158	125.95723
1004.327	54.2728
1004.495	41.62532
1004.663	77.46199
1004.832	90.11179
1005	12.11781
1005.168	-51.09666
1005.337	119.63111
1005.505	73.24557
1005.673	130.17476
1005.842	12.11781
1006.01	75.35377
1006.178	3.68794
1006.346	64.813
1006.514	79.57023
1006.683	24.76332
1006.851	39.51749
1007.019	58.48881
1007.187	-13.17063
1007.355	98.54544
1007.523	-17.38502
1007.691	113.30518
1007.859	54.2728
1008.027	62.70491
1008.195	41.62532
1008.363	20.54805
1008.531	83.78679
1008.699	45.84105
1008.867	62.70491
1009.035	56.38079
1009.203	20.54805
1009.37	-4.74153
1009.538	142.82785
1009.706	28.97868
1009.874	138.61006
1010.042	33.19413
1010.209	83.78679
1010.377	33.19413
1010.545	33.19413
1010.713	62.70491
1010.88	43.73317
1011.048	16.33288
1011.216	81.6785
1011.383	7.90283
1011.551	83.78679
1011.718	26.87099
1011.886	10.01031
1012.054	35.30189
1012.221	-17.38502
1012.389	47.94895
1012.556	20.54805
1012.724	79.57023
1012.891	-46.88306
1013.058	5.79537
1013.226	58.48881
1013.393	47.94895
1013.561	-57.41689
1013.728	62.70491
1013.895	79.57023
1014.063	28.97868
1014.23	33.19413
1014.397	45.84105
1014.565	56.38079
1014.732	-0.52684
1014.899	47.94895
1015.066	62.70491
1015.233	22.65567
1015.401	24.76332
1015.568	14.22533
1015.735	54.2728
1015.902	7.90283
1016.069	66.92111
1016.236	37.40968
1016.403	71.13739
1016.57	-13.17063
1016.737	20.54805
1016.904	-40.56246
1017.071	16.33288
1017.238	7.90283
1017.405	81.6785
1017.572	-6.84884
1017.739	37.40968
1017.906	-38.45555
1018.073	12.11781
1018.24	33.19413
1018.407	75.35377
1018.573	12.11781
1018.74	43.73317
1018.907	-34.24164
1019.074	-4.74153
1019.241	22.65567
1019.407	115.4138
1019.574	28.97868
1019.741	24.76332
1019.907	43.73317
1020.074	-13.17063
1020.241	22.65567
1020.407	-0.52684
1020.574	-32.13465
1020.74	64.813
1020.907	-44.77622
1021.073	92.22017
1021.24	20.54805
1021.406	12.11781
1021.573	64.813
1021.739	69.02924
1021.906	69.02924
1022.072	56.38079
1022.239	96.437
1022.405	37.40968
1022.571	41.62532
1022.738	62.70491
1022.904	-23.70644
1023.07	81.6785
1023.237	-51.09666
1023.403	14.22533
1023.569	3.68794
1023.735	-55.31017
1023.902	39.51749
1024.068	12.11781
1024.234	22.65567
1024.4	14.22533
1024.566	58.48881
1024.732	24.76332
1024.898	20.54805
1025.065	12.11781
1025.231	-30.02763
1025.397	58.48881
1025.563	20.54805
1025.729	31.08639
1025.895	56.38079
1026.061	-30.02763
1026.227	18.44046
1026.392	7.90283
1026.558	-4.74153
1026.724	5.79537
1026.89	16.33288
1027.056	28.97868
1027.222	58.48881
1027.388	3.68794
1027.553	-2.6342
1027.719	66.92111
1027.885	52.16483
1028.051	-0.52684
1028.216	41.62532
1028.382	43.73317
1028.548	75.35377
1028.713	22.65567
1028.879	28.97868
1029.045	-17.38502
1029.21	16.33288
1029.376	12.11781
1029.541	58.48881
1029.707	20.54805
1029.873	5.79537
1030.038	39.51749
1030.204	-46.88306
1030.369	18.44046
1030.534	37.40968
1030.7	-32.13465
1030.865	62.70491
1031.031	77.46199
1031.196	83.78679
1031.361	-32.13465
1031.527	50.05688
1031.692	-80.58907
1031.857	-17.38502
1032.023	20.54805
1032.188	37.40968
1032.353	64.813
1032.518	-48.98987
1032.684	85.8951
1032.849	83.78679
1033.014	31.08639
1033.179	10.01031
1033.344	18.44046
1033.509	5.79537
1033.674	7.90283
1033.839	-51.09666
1034.004	130.17476
1034.17	-46.88306
1034.335	-13.17063
1034.5	14.22533
1034.664	79.57023
1034.829	47.94895
1034.994	71.13739
1035.159	-6.84884
1035.324	12.11781
1035.489	-51.09666
1035.654	-4.74153
1035.819	88.00344
1035.984	56.38079
1036.148	1.58054
1036.313	-21.59933
1036.478	-4.74153
1036.643	-61.63024
1036.807	-42.66935
1036.972	41.62532
1037.137	18.44046
1037.301	81.6785
1037.466	10.01031
1037.631	58.48881
1037.795	-59.52357
1037.96	31.08639
1038.124	47.94895
1038.289	56.38079
1038.454	1.58054
1038.618	-32.13465
1038.783	28.97868
1038.947	-13.17063
1039.111	-0.52684
1039.276	31.08639
1039.44	3.68794
1039.605	28.97868
1039.769	16.33288
1039.933	47.94895
1040.098	31.08639
1040.262	-42.66935
1040.426	18.44046
1040.591	37.40968
1040.755	54.2728
1040.919	14.22533
1041.083	-13.17063
1041.248	50.05688
1041.412	-13.17063
1041.576	20.54805
1041.74	64.813
1041.904	-13.17063
1042.068	28.97868
1042.232	71.13739
1042.397	-17.38502
1042.561	12.11781
1042.725	64.813
1042.889	-30.02763
1043.053	-34.24164
1043.217	-11.06339
1043.381	31.08639
1043.544	-25.81353
1043.708	41.62532
1043.872	50.05688
1044.036	22.65567
1044.2	-8.95613
1044.364	33.19413
1044.528	5.79537
1044.691	33.19413
1044.855	47.94895
1045.019	79.57023
1045.183	-11.06339
1045.346	88.00344
1045.51	60.59685
1045.674	33.19413
1045.837	-38.45555
1046.001	-19.49219
1046.165	75.35377
1046.328	-0.52684
1046.492	-38.45555
1046.655	-19.49219
1046.819	-59.52357
1046.983	-13.17063
1047.146	-4.74153
1047.31	-70.05664
1047.473	50.05688
1047.636	7.90283
1047.8	45.84105
1047.963	10.01031
1048.127	12.11781
1048.29	-0.52684
