Data from Scatter_Coeff_Baseline_USB4F045381__45__0045.txt Node

Date: Thu Feb 13 19:31:06 EST 2025
User: mmckonesweet
Spectrometer: USB4F04538
Trigger mode: 4
Integration Time (sec): 2.400000E-3
Scans to average: 1
Electric dark correction enabled: true
Nonlinearity correction enabled: true
Boxcar width: 0
XAxis mode: Wavelengths
Number of Pixels in Spectrum: 3648
>>>>>Begin Spectral Data<<<<<
345.52	-8.0781
345.736	-8.0781
345.952	-8.0781
346.168	8.78094
346.384	-14.39983
346.6	-39.68458
346.816	-48.11204
347.032	40.39575
347.248	72.0158
347.464	21.42623
347.68	-3.86348
347.896	-24.93558
348.112	-16.50703
348.328	-20.72135
348.544	17.21104
348.76	6.67348
348.975	-3.86348
349.191	-16.50703
349.407	38.28793
349.623	12.99594
349.839	-8.0781
350.055	-46.00521
350.27	63.58328
350.486	-3.86348
350.702	4.56604
350.918	-3.86348
351.133	86.77357
351.349	-50.21884
351.565	-8.0781
351.781	23.53386
351.996	38.28793
352.212	-29.1497
352.428	19.31862
352.644	72.0158
352.859	31.96461
353.075	86.77357
353.291	-37.57766
353.506	-3.86348
353.722	-20.72135
353.938	12.99594
354.153	82.55695
354.369	-24.93558
354.584	46.71934
354.8	-20.72135
355.016	67.79949
355.231	57.25913
355.447	2.45862
355.662	31.96461
355.878	57.25913
356.093	15.10348
356.309	6.67348
356.524	-10.18537
356.74	-43.89836
356.955	101.53244
357.171	-27.04265
357.386	-71.28546
357.602	31.96461
357.817	-20.72135
358.033	-46.00521
358.248	-10.18537
358.464	25.64151
358.679	78.34042
358.895	34.07236
359.11	-22.82848
359.325	-3.86348
359.541	-22.82848
359.756	23.53386
359.972	55.15113
360.187	4.56604
360.402	-54.43236
360.618	38.28793
360.833	-52.32561
361.048	25.64151
361.264	17.21104
361.479	21.42623
361.694	-41.79148
361.909	10.88843
362.125	34.07236
362.34	23.53386
362.555	4.56604
362.77	4.56604
362.986	-3.86348
363.201	21.42623
363.416	48.82725
363.631	0.35123
363.847	38.28793
364.062	-10.18537
364.277	69.90763
364.492	-52.32561
364.707	-37.57766
364.922	4.56604
365.138	0.35123
365.353	17.21104
365.568	31.96461
365.783	29.85689
365.998	76.23219
366.213	4.56604
366.428	67.79949
366.643	-3.86348
366.858	12.99594
367.073	10.88843
367.288	29.85689
367.503	-24.93558
367.718	-1.75614
367.933	27.74919
368.148	25.64151
368.363	17.21104
368.578	-3.86348
368.793	55.15113
369.008	21.42623
369.223	-50.21884
369.438	65.69137
369.653	-1.75614
369.868	40.39575
370.083	-52.32561
370.298	50.93519
370.513	67.79949
370.728	25.64151
370.943	34.07236
371.157	-58.64579
371.372	78.34042
371.587	21.42623
371.802	10.88843
372.017	-24.93558
372.232	21.42623
372.446	-5.9708
372.661	27.74919
372.876	19.31862
373.091	-33.36373
373.306	31.96461
373.52	-5.9708
373.735	12.99594
373.95	59.36716
374.165	82.55695
374.379	-5.9708
374.594	0.35123
374.809	-3.86348
375.023	8.78094
375.238	82.55695
375.453	-39.68458
375.667	-29.1497
375.882	-16.50703
376.097	-8.0781
376.311	-3.86348
376.526	21.42623
376.741	-20.72135
376.955	-14.39983
377.17	34.07236
377.384	2.45862
377.599	12.99594
377.813	23.53386
378.028	0.35123
378.242	55.15113
378.457	4.56604
378.672	-33.36373
378.886	40.39575
379.101	0.35123
379.315	6.67348
379.53	80.44868
379.744	-20.72135
379.958	38.28793
380.173	29.85689
380.387	25.64151
380.602	21.42623
380.816	21.42623
381.031	-12.29261
381.245	50.93519
381.459	-48.11204
381.674	38.28793
381.888	23.53386
382.103	17.21104
382.317	-3.86348
382.531	2.45862
382.746	15.10348
382.96	48.82725
383.174	-62.85911
383.388	74.12398
383.603	8.78094
383.817	6.67348
384.031	15.10348
384.246	55.15113
384.46	34.07236
384.674	63.58328
384.888	-41.79148
385.103	19.31862
385.317	76.23219
385.531	40.39575
385.745	65.69137
385.959	29.85689
386.174	12.99594
386.388	-12.29261
386.602	-16.50703
386.816	-29.1497
387.03	-41.79148
387.244	40.39575
387.458	38.28793
387.672	8.78094
387.887	-8.0781
388.101	88.88192
388.315	12.99594
388.529	55.15113
388.743	-18.61421
388.957	10.88843
389.171	4.56604
389.385	88.88192
389.599	55.15113
389.813	23.53386
390.027	36.18013
390.241	40.39575
390.455	31.96461
390.669	63.58328
390.883	67.79949
391.097	-10.18537
391.311	21.42623
391.525	31.96461
391.738	72.0158
391.952	40.39575
392.166	21.42623
392.38	10.88843
392.594	69.90763
392.808	72.0158
393.022	38.28793
393.236	-8.0781
393.449	6.67348
393.663	105.74946
393.877	-16.50703
394.091	31.96461
394.305	42.50359
394.518	-48.11204
394.732	-12.29261
394.946	2.45862
395.16	38.28793
395.373	-29.1497
395.587	63.58328
395.801	42.50359
396.015	-46.00521
396.228	34.07236
396.442	34.07236
396.656	31.96461
396.869	19.31862
397.083	55.15113
397.297	34.07236
397.51	-27.04265
397.724	12.99594
397.938	34.07236
398.151	97.31551
398.365	101.53244
398.578	59.36716
398.792	50.93519
399.005	-20.72135
399.219	86.77357
399.433	8.78094
399.646	-12.29261
399.86	67.79949
400.073	34.07236
400.287	8.78094
400.5	-10.18537
400.714	-14.39983
400.927	55.15113
401.141	-8.0781
401.354	93.09867
401.567	-102.88057
401.781	-1.75614
401.994	44.61145
402.208	31.96461
402.421	15.10348
402.635	8.78094
402.848	63.58328
403.061	21.42623
403.275	80.44868
403.488	55.15113
403.701	29.85689
403.915	74.12398
404.128	-12.29261
404.341	25.64151
404.555	-10.18537
404.768	46.71934
404.981	-14.39983
405.195	65.69137
405.408	97.31551
405.621	57.25913
405.834	-20.72135
406.048	80.44868
406.261	80.44868
406.474	29.85689
406.687	55.15113
406.9	-10.18537
407.114	44.61145
407.327	-50.21884
407.54	-27.04265
407.753	25.64151
407.966	50.93519
408.179	-18.61421
408.392	17.21104
408.605	65.69137
408.819	53.04315
409.032	-31.25673
409.245	0.35123
409.458	82.55695
409.671	-31.25673
409.884	44.61145
410.097	48.82725
410.31	72.0158
410.523	38.28793
410.736	0.35123
410.949	4.56604
411.162	-12.29261
411.375	21.42623
411.588	25.64151
411.801	-39.68458
412.014	50.93519
412.227	23.53386
412.44	4.56604
412.653	-18.61421
412.865	74.12398
413.078	48.82725
413.291	4.56604
413.504	44.61145
413.717	67.79949
413.93	38.28793
414.143	-54.43236
414.356	-14.39983
414.568	21.42623
414.781	63.58328
414.994	59.36716
415.207	-52.32561
415.42	17.21104
415.632	23.53386
415.845	74.12398
416.058	-5.9708
416.271	34.07236
416.483	-73.39198
416.696	6.67348
416.909	19.31862
417.121	40.39575
417.334	34.07236
417.547	-52.32561
417.759	-46.00521
417.972	46.71934
418.185	-24.93558
418.397	-12.29261
418.61	6.67348
418.823	88.88192
419.035	21.42623
419.248	17.21104
419.46	29.85689
419.673	46.71934
419.885	34.07236
420.098	50.93519
420.311	105.74946
420.523	74.12398
420.736	29.85689
420.948	29.85689
421.161	34.07236
421.373	53.04315
421.586	-16.50703
421.798	156.36047
422.01	84.66525
422.223	48.82725
422.435	109.96657
422.648	93.09867
422.86	15.10348
423.073	38.28793
423.285	29.85689
423.497	63.58328
423.71	23.53386
423.922	-5.9708
424.134	4.56604
424.347	38.28793
424.559	67.79949
424.771	80.44868
424.984	101.53244
425.196	48.82725
425.408	15.10348
425.621	19.31862
425.833	-29.1497
426.045	93.09867
426.257	42.50359
426.47	-12.29261
426.682	-16.50703
426.894	42.50359
427.106	-20.72135
427.318	19.31862
427.531	31.96461
427.743	-5.9708
427.955	50.93519
428.167	12.99594
428.379	46.71934
428.591	6.67348
428.804	15.10348
429.016	86.77357
429.228	-46.00521
429.44	57.25913
429.652	12.99594
429.864	84.66525
430.076	29.85689
430.288	50.93519
430.5	36.18013
430.712	88.88192
430.924	-33.36373
431.136	-1.75614
431.348	46.71934
431.56	90.99028
431.772	61.47521
431.984	8.78094
432.196	55.15113
432.408	55.15113
432.62	-60.75247
432.832	80.44868
433.044	67.79949
433.256	105.74946
433.468	50.93519
433.679	21.42623
433.891	46.71934
434.103	40.39575
434.315	12.99594
434.527	12.99594
434.739	46.71934
434.95	-3.86348
435.162	55.15113
435.374	59.36716
435.586	46.71934
435.798	21.42623
436.009	57.25913
436.221	-27.04265
436.433	101.53244
436.645	44.61145
436.856	12.99594
437.068	15.10348
437.28	21.42623
437.491	17.21104
437.703	42.50359
437.915	63.58328
438.126	65.69137
438.338	38.28793
438.55	17.21104
438.761	59.36716
438.973	4.56604
439.184	80.44868
439.396	10.88843
439.608	105.74946
439.819	-1.75614
440.031	38.28793
440.242	21.42623
440.454	63.58328
440.665	38.28793
440.877	80.44868
441.088	46.71934
441.3	-27.04265
441.511	65.69137
441.723	17.21104
441.934	93.09867
442.146	105.74946
442.357	72.0158
442.569	8.78094
442.78	88.88192
442.991	80.44868
443.203	38.28793
443.414	38.28793
443.626	36.18013
443.837	4.56604
444.048	105.74946
444.26	74.12398
444.471	88.88192
444.682	105.74946
444.894	42.50359
445.105	-29.1497
445.316	72.0158
445.528	46.71934
445.739	2.45862
445.95	88.88192
446.161	126.83588
446.373	90.99028
446.584	21.42623
446.795	63.58328
447.006	40.39575
447.217	53.04315
447.429	72.0158
447.64	122.61842
447.851	67.79949
448.062	107.85801
448.273	42.50359
448.484	38.28793
448.695	65.69137
448.907	55.15113
449.118	118.40105
449.329	120.50972
449.54	116.2924
449.751	74.12398
449.962	44.61145
450.173	-12.29261
450.384	10.88843
450.595	42.50359
450.806	137.37989
451.017	21.42623
451.228	80.44868
451.439	12.99594
451.65	31.96461
451.861	57.25913
452.072	40.39575
452.283	29.85689
452.494	88.88192
452.705	82.55695
452.915	99.42397
453.126	147.92445
453.337	109.96657
453.548	95.20708
453.759	120.50972
453.97	63.58328
454.181	17.21104
454.391	44.61145
454.602	78.34042
454.813	150.03342
455.024	126.83588
455.235	67.79949
455.445	55.15113
455.656	48.82725
455.867	101.53244
456.078	80.44868
456.288	95.20708
456.499	67.79949
456.71	147.92445
456.921	72.0158
457.131	99.42397
457.342	72.0158
457.553	0.35123
457.763	63.58328
457.974	105.74946
458.184	93.09867
458.395	135.27105
458.606	164.79683
458.816	147.92445
459.027	74.12398
459.237	99.42397
459.448	169.01513
459.659	93.09867
459.869	126.83588
460.08	107.85801
460.29	101.53244
460.501	150.03342
460.711	65.69137
460.922	50.93519
461.132	118.40105
461.343	126.83588
461.553	147.92445
461.764	126.83588
461.974	80.44868
462.184	185.88917
462.395	177.45199
462.605	160.57861
462.816	135.27105
463.026	175.34274
463.236	97.31551
463.447	99.42397
463.657	162.68771
463.867	141.59765
464.078	175.34274
464.288	234.40925
464.498	215.42188
464.709	175.34274
464.919	234.40925
465.129	114.18377
465.339	139.48876
465.55	209.09311
465.76	192.21728
465.97	206.98356
466.18	173.23352
466.391	285.04988
466.601	238.62888
466.811	295.60137
467.021	257.61818
467.231	266.05836
467.441	244.95848
467.651	223.86052
467.862	344.14405
468.072	325.14796
468.282	244.95848
468.492	194.32669
468.702	295.60137
468.912	266.05836
469.122	344.14405
469.332	320.92681
469.542	329.36919
469.752	358.91976
469.962	418.03086
470.172	447.59118
470.382	405.3631
470.592	348.36559
470.802	430.69919
471.012	540.51437
471.222	453.92593
471.432	538.40216
471.642	405.3631
471.852	500.38496
472.062	451.81433
472.272	586.98623
472.482	536.28998
472.691	595.43635
472.901	472.93102
473.111	565.86185
473.321	523.61715
473.531	563.74948
473.741	633.46441
473.95	696.85324
474.16	618.67523
474.37	612.3372
474.58	686.28771
474.79	876.50654
474.999	713.75867
475.209	705.30587
475.419	834.22902
475.628	861.70902
475.838	815.20529
476.048	817.319
476.258	1026.61666
476.467	992.78599
476.677	975.87127
476.886	1145.0352
477.096	1096.3971
477.306	1140.8057
477.515	1056.21976
477.725	1119.6585
477.935	1102.74106
478.144	1314.22621
478.354	1147.14995
478.563	1320.5712
478.773	1381.90676
478.982	1307.88124
479.192	1494.00433
479.401	1536.30513
479.611	1474.96889
479.82	1576.49049
480.03	1595.52548
480.239	1673.77866
480.449	1663.2041
480.658	1976.16972
480.868	1754.14283
481.077	1737.22446
481.287	1686.46804
481.496	1732.99483
481.705	1893.70915
481.915	2096.67165
482.124	1823.92846
482.333	2077.64654
482.543	1948.68385
482.752	2183.33369
482.961	2083.98831
483.171	2314.35649
483.38	2240.39624
483.589	2329.14716
483.799	2109.35472
484.008	2303.79144
484.217	2257.30244
484.426	2498.14773
484.636	2455.90398
484.845	2675.52058
485.054	2468.57757
485.263	2713.51769
485.472	2639.63063
485.682	2713.51769
485.891	2588.95635
486.1	2700.85245
486.309	2759.95285
486.518	2973.04647
486.727	2694.51966
486.936	2970.93736
487.146	2964.60993
487.355	3042.63875
487.564	3040.53014
487.773	3183.87985
487.982	3063.72402
488.191	3188.09489
488.4	2994.13679
488.609	3331.36659
488.818	3278.70224
489.027	3379.80825
489.236	3455.61131
489.445	3491.39913
489.654	3491.39913
489.863	3733.35274
490.072	3602.939
490.281	3758.58558
490.49	3699.70461
490.698	3848.98015
490.907	3548.22781
491.116	4002.35622
491.325	3752.27763
491.534	4040.15833
491.743	3832.16531
491.952	4061.15661
492.16	4023.35821
492.369	4029.65841
492.578	4164.01813
492.787	4124.13901
492.996	4187.10257
493.204	4208.0862
493.413	4205.98793
493.622	4375.87832
493.831	4243.7535
494.039	4606.36484
494.248	4401.03522
494.457	4629.39874
494.665	4554.00502
494.874	4560.28893
495.083	4593.79975
495.291	4585.42258
495.5	4765.45268
495.709	4932.77212
495.917	4669.17819
496.126	4939.04375
496.335	5039.36166
496.543	4918.13751
496.752	4813.57197
496.96	4939.04375
497.169	4790.5599
497.377	5120.83075
497.586	4987.11937
497.794	5150.06746
498.003	5068.61103
498.211	5183.47526
498.42	5137.538
498.628	5262.79485
498.837	5158.41997
499.045	5266.96864
499.254	5085.32292
499.462	5304.52846
499.671	5317.04672
499.879	5331.65028
500.087	5415.07719
500.296	5592.23447
500.504	5629.72829
500.713	5781.7082
500.921	5567.23434
501.129	5706.77492
501.338	5492.21361
501.546	5842.04888
501.754	5679.70816
501.962	5831.64673
502.171	5792.11318
502.379	5881.57166
502.587	5638.05921
502.795	5979.30196
503.004	5881.57166
503.212	5964.74969
503.42	5943.95872
503.628	6106.0658
503.837	5891.97098
504.045	6012.55997
504.253	6031.26495
504.461	6147.60866
504.669	6295.00999
504.877	6174.60648
505.085	6037.49952
505.294	6184.9892
505.502	6174.60648
505.71	6510.70918
505.918	6187.06567
506.126	6284.63348
506.334	6211.98153
506.542	6514.85478
506.75	6612.24964
506.958	6676.4609
507.166	6404.9651
507.374	6784.12056
507.582	6463.02816
507.79	6562.52248
507.998	6467.17482
508.206	6854.47999
508.414	6531.43624
508.622	6724.08724
508.83	6637.10824
509.037	6935.15405
509.245	6653.67879
509.453	6891.71846
509.661	6819.30357
509.869	7073.66777
510.077	6860.68691
510.285	7079.86752
510.492	6833.78877
510.7	7044.73294
510.908	6895.85561
511.116	6966.17336
511.324	6941.35832
511.531	7119.12792
511.739	7102.59821
511.947	7125.3262
512.155	7129.45827
512.362	7243.05543
512.57	7317.37375
512.778	7327.69349
512.985	7362.77651
513.193	7362.77651
513.401	7511.2937
513.608	7426.73519
513.816	7492.73518
514.024	7597.8771
514.231	7519.54137
514.439	7626.72986
514.646	7560.77456
514.854	7845.05214
515.061	7412.29473
515.269	7653.51798
515.477	7566.9588
515.684	7725.62204
515.892	7470.05018
516.099	7653.51798
516.307	7519.54137
516.514	7952.06802
516.722	7894.45101
516.929	7966.46975
517.136	7826.52448
517.344	7857.40297
517.551	7659.69934
517.759	7725.62204
517.966	7995.27022
518.173	7919.14599
518.381	7906.79887
518.588	7995.27022
518.796	8137.15732
519.003	8178.26612
519.21	8098.09654
519.418	8157.71271
519.625	8244.02366
519.832	8272.78622
520.039	8170.045
520.247	8309.761
520.454	8303.59898
520.661	8490.43602
520.868	8264.56874
521.076	8570.46049
521.283	8202.92758
521.49	8720.17323
521.697	8453.49189
521.904	8601.23149
522.112	8449.38661
522.319	8322.08452
522.526	8346.72945
522.733	8843.15133
522.94	8705.8215
523.147	8802.1659
523.354	8732.47399
523.561	9025.44974
523.768	8818.56094
523.975	9080.72619
524.183	8755.02369
524.39	9013.16436
524.597	9027.49724
524.804	9019.30713
525.011	9240.3433
525.218	9088.91422
525.425	8943.53525
525.632	9197.37965
525.838	9160.54771
526.045	9189.19525
526.252	9203.51777
526.459	9365.10065
526.666	9152.36209
526.873	9410.08004
527.08	9567.44633
527.287	9522.49421
527.494	9528.62449
527.701	9710.42536
527.907	9645.07296
528.114	9583.79066
528.321	9457.09553
528.528	9610.34805
528.735	9514.32027
528.941	9459.13949
529.148	9604.21966
529.355	9751.26262
529.562	9318.06825
529.768	9932.91556
529.975	9583.79066
530.182	9812.50716
530.388	9585.83363
530.595	10020.63875
530.802	9677.75113
531.008	10206.19892
531.215	10079.78594
531.422	10140.96019
531.628	10122.60923
531.835	9996.16055
532.042	10287.72763
532.248	10293.84141
532.455	9939.03665
532.661	10283.65171
532.868	10155.23237
533.074	10383.49643
533.281	10279.57573
533.487	10517.9315
533.694	10334.59688
533.9	10595.30833
534.107	10350.89757
534.313	10509.78551
534.52	10389.60834
534.726	10599.3803
534.933	10534.22287
535.139	10489.41965
535.345	10688.95105
535.552	10835.47101
535.758	10489.41965
535.965	10558.65841
536.171	10924.98111
536.377	10788.6727
536.584	10992.09924
536.79	10922.94704
536.996	11164.924
537.203	10979.89685
537.409	10878.19452
537.615	11073.43831
537.821	10782.56811
538.028	11128.33233
538.234	10906.67403
538.44	10988.03182
538.646	10937.18532
538.853	11173.05502
539.059	10904.63986
539.265	11132.39824
539.471	11193.38182
539.677	11124.26638
539.883	11075.47157
540.09	11485.9748
540.296	11309.22479
540.502	11473.78752
540.708	11280.77522
540.914	11579.39937
541.12	11581.43011
541.326	11691.077
541.532	11473.78752
541.738	11682.95591
541.944	11766.19038
542.15	11599.70644
542.356	11555.02965
542.562	11981.31549
542.768	11555.02965
542.974	11881.88249
543.18	11944.79136
543.386	12127.38649
543.592	11883.91193
543.798	12127.38649
544.004	11814.90621
544.21	12242.99814
544.415	11851.43986
544.621	12167.95472
544.827	11798.66815
545.033	12048.26971
545.239	11930.58682
545.445	12437.66013
545.651	12368.7246
545.856	12472.12501
546.062	12316.00388
546.268	12098.98694
546.474	12307.89259
546.679	12214.60451
546.885	12180.1246
547.091	12443.74231
547.297	12105.07268
547.502	12137.52883
547.708	12096.95834
547.914	12344.39254
548.119	12378.86267
548.325	12646.44842
548.531	12372.77985
548.736	12725.48715
548.942	12202.43537
549.147	12701.16849
549.353	12443.74231
549.559	12731.56668
549.764	12585.64317
549.97	12618.07332
550.175	12642.3949
550.381	12938.24086
550.586	12589.69703
550.792	12676.84899
550.997	13041.55728
551.203	12695.0887
551.408	13041.55728
551.614	13280.55534
551.819	12905.82511
552.025	13209.67269
552.23	12999.01681
552.435	13157.01348
552.641	13059.78824
552.846	13100.30009
553.052	13325.10745
553.257	13084.09558
553.462	13071.942
553.668	13499.24695
553.873	13080.04441
554.078	13280.55534
554.283	13355.48274
554.489	13513.41985
554.694	13497.22224
554.899	13339.2827
555.105	13319.03228
555.31	13566.06048
555.515	13487.09861
555.72	13545.81437
555.925	13525.5679
556.131	13728.01706
556.336	13754.33305
556.541	13642.99251
556.746	13481.02439
556.951	13768.50298
557.156	13493.1728
557.361	13715.87104
557.567	13845.42293
557.772	13774.57576
557.977	13501.27166
558.182	13764.45444
558.387	13642.99251
558.592	14005.32265
558.797	13476.97489
559.002	14009.37053
559.207	13770.52724
559.412	13991.15497
559.617	13736.11434
559.822	13968.89123
560.027	14187.46836
560.232	14084.25469
560.437	13930.43496
560.642	14262.34552
560.847	14183.42087
561.051	14383.76264
561.256	14223.89542
561.461	14276.51118
561.666	14175.32586
561.871	14341.26735
562.076	14096.39777
562.281	14292.70039
562.485	13732.06571
562.69	14227.94283
562.895	14323.05486
563.1	14452.56307
563.305	14387.80977
563.509	14543.61994
563.714	14333.17293
563.919	14703.46949
564.123	14505.17404
564.328	14256.2745
564.533	14401.97469
564.737	14448.51604
564.942	14395.90402
565.147	14545.6434
565.351	14519.33837
565.556	14752.03016
565.761	14642.76791
565.965	14762.14691
566.17	14428.28077
566.374	14770.24029
566.579	14849.15017
566.784	14853.1968
566.988	14667.04864
567.193	14956.38523
567.397	14638.7211
567.602	14897.70962
567.806	14764.17025
568.011	14905.80283
568.215	14964.47839
568.42	15385.32008
568.624	14796.5437
568.828	15089.92174
569.033	15083.85192
569.237	15199.17838
569.442	14932.10571
569.646	15045.40969
569.85	14897.70962
570.055	15178.94567
570.259	14958.40852
570.463	15571.46516
570.668	15083.85192
570.872	15195.13184
571.076	15185.01549
571.281	15296.29554
571.485	15367.11046
571.689	15280.10932
571.893	15237.62055
572.098	15504.69516
572.302	15452.08897
572.506	15749.52267
572.71	15269.99294
572.914	15395.43654
573.119	15429.83262
573.323	15450.06567
573.527	15530.99841
573.731	15520.88176
573.935	15812.24923
574.139	15464.22883
574.343	15753.56951
574.547	15818.3196
574.751	15826.41344
574.955	15528.97508
575.159	15472.32208
575.364	15961.98811
575.568	15636.21258
575.772	15502.67184
575.976	15757.61636
576.18	15820.34305
576.383	15830.46036
576.587	16127.92366
576.791	15949.84687
576.995	16241.25155
577.199	15783.92098
577.403	15925.56451
577.607	16249.3466
577.811	16162.32622
578.015	16020.67151
578.219	16233.15652
578.422	16008.53002
578.626	16204.82415
578.83	15959.96457
579.034	16075.30887
579.238	15933.65861
579.442	16279.70331
579.645	15889.14133
579.849	16405.1821
580.053	16508.4042
580.257	16306.01278
580.46	16494.23614
580.664	16550.90899
580.868	16354.58494
581.071	16471.97226
581.275	16354.58494
581.479	16688.55021
581.682	16801.90987
581.886	16437.56493
582.09	16745.2291
582.293	16710.8167
582.497	16686.526
582.7	16615.68003
582.904	16779.6422
583.107	16688.55021
583.311	16589.36652
583.515	16781.66652
583.718	16625.80071
583.922	16937.54681
584.125	16935.52229
584.329	17030.67744
584.532	16672.35658
584.735	16984.11142
584.939	16763.44771
585.142	16686.526
585.346	16554.95711
585.549	16986.136
585.753	17261.50466
585.956	17184.55814
586.159	17105.59103
586.363	17241.25517
586.566	17172.40907
586.769	17024.60353
586.973	17247.32999
587.176	17249.35493
587.379	16969.93943
587.582	17188.60785
587.786	17123.81382
587.989	17370.85708
588.192	17087.36845
588.395	17239.23023
588.599	17401.23432
588.802	17265.5546
589.005	17393.13365
589.208	17182.53329
589.411	17380.98275
589.615	17405.28467
589.818	17393.13365
590.021	17840.77223
590.224	17543.00403
590.427	17559.20727
590.63	17330.35516
590.833	17717.19981
591.036	17773.92001
591.239	17739.48243
591.442	17729.35392
591.645	17966.38355
591.848	17986.6447
592.051	17962.33136
592.254	17545.02943
592.457	17901.55023
592.66	17788.10048
592.863	17970.43575
593.066	17950.17488
593.269	17970.43575
593.472	18179.14351
593.675	18140.64114
593.878	17628.07336
594.081	17994.74926
594.284	17927.88833
594.486	17907.6282
594.689	18306.81879
594.892	18019.06328
595.095	18100.11374
595.298	18408.15893
595.5	18343.30016
595.703	18454.77858
595.906	18308.8455
596.109	18211.56759
596.311	18408.15893
596.514	18473.0216
596.717	18106.19276
596.92	18671.68802
597.122	18590.59518
597.325	18908.92076
597.528	18693.98965
597.73	19146.20841
597.933	18890.67016
598.136	18906.8929
598.338	18487.21082
598.541	19000.17869
598.743	18819.69865
598.946	19012.34703
599.148	18882.55888
599.351	19105.64248
599.554	18862.28097
599.756	18799.42198
599.959	18732.51176
600.161	18736.5668
600.363	18795.36669
600.566	18750.75957
600.768	18931.2275
600.971	19172.57714
601.173	18927.1717
601.376	19326.74666
601.578	18912.9765
601.78	19448.47628
601.983	19138.09509
602.185	19148.23675
602.388	19144.18007
602.59	19192.86125
602.792	19484.99808
602.995	19529.63766
603.197	18925.1438
603.399	19263.85886
603.601	19105.64248
603.804	18882.55888
604.006	19085.36013
604.208	19123.89695
604.41	19085.36013
604.613	19413.98471
604.815	19302.40253
605.017	19243.57331
605.219	19349.06264
605.421	19401.8115
605.623	19237.48773
605.826	19215.17424
606.028	19288.20205
606.23	19105.64248
606.432	19306.45984
606.634	19304.43118
606.836	19365.29276
607.038	19653.4216
607.24	19521.52122
607.442	19681.83322
607.644	19389.63844
607.846	19426.15807
608.048	19213.14577
608.25	19030.59981
608.452	19600.65933
608.654	19446.44733
608.856	19430.21589
609.058	19288.20205
609.26	19276.03038
609.462	19493.11421
609.664	19639.2161
609.866	19207.06037
610.067	18912.9765
610.269	19618.92287
610.471	19336.89023
610.673	19426.15807
610.875	19480.94003
611.077	19495.14326
611.278	19176.63393
611.48	19509.34669
611.682	19655.45097
611.884	19921.33527
612.085	19649.36286
612.287	19442.38944
612.489	19203.00346
612.69	19629.06943
612.892	19511.37577
613.094	19523.55032
613.295	19069.13454
613.497	19491.08517
613.699	19718.36366
613.9	19795.48793
614.102	19580.3669
614.304	19521.52122
614.505	19558.04571
614.707	19864.49899
614.908	19744.7476
615.11	19765.04341
615.311	19738.65893
615.513	19422.10026
615.714	19876.67791
615.916	19827.96312
616.117	19361.23521
616.319	19710.24567
616.52	19596.60081
616.722	20169.01756
616.923	20124.34891
617.124	20020.8067
617.326	19574.27926
617.527	19876.67791
617.729	19740.68848
617.93	19919.30535
618.131	19773.16186
618.333	19738.65893
618.534	19413.98471
618.735	19903.06611
618.937	20045.16859
619.138	19870.58843
619.339	19990.35519
619.54	19781.28037
619.742	19527.60854
619.943	19767.07302
620.144	19736.62939
620.345	19945.69469
620.546	20158.86541
620.748	19825.93338
620.949	20079.6823
621.15	20406.60772
621.351	20065.47063
621.552	20441.13415
621.753	20091.8639
621.954	20398.48403
622.155	20089.83363
622.356	20093.89418
622.558	20156.835
622.759	20032.98757
622.96	19880.73759
623.161	19896.97646
623.362	19899.00634
623.563	20372.0825
623.764	19935.54486
623.965	20449.25819
624.166	20108.10627
624.366	20162.92626
624.567	19836.08208
624.768	19829.99285
624.969	19535.72503
625.17	20307.09715
625.371	19704.15722
625.572	19941.63474
625.773	19765.04341
625.973	20039.07806
626.174	19896.97646
626.375	20288.82079
626.576	20024.86697
626.777	20305.06643
626.977	20120.28823
627.178	20091.8639
627.379	20061.41018
627.58	20059.37997
627.78	20156.835
627.981	20378.1751
628.182	20632.06681
628.382	20532.53347
628.583	20292.88218
628.784	20248.20789
628.984	20081.71256
629.185	20274.60609
629.386	19834.05233
629.586	20313.18934
629.787	20173.07845
629.987	20676.75851
630.188	19917.27543
630.388	20282.72875
630.589	19783.31001
630.79	20512.22178
630.99	20361.92826
631.191	20699.10511
631.391	20359.89742
631.591	20430.97919
631.792	20093.89418
631.992	20625.97265
632.193	20457.3823
632.393	20585.34583
632.594	20644.25526
632.794	20495.97273
632.994	20384.26773
633.195	20441.13415
633.395	20644.25526
633.595	20847.41802
633.796	20693.01053
633.996	20892.11938
634.196	20981.5281
634.397	20877.896
634.597	20368.02079
634.797	20953.07901
634.997	20258.36096
635.198	20495.97273
635.398	20599.56503
635.598	20821.00451
635.798	20713.32594
635.998	20508.15949
636.199	20717.38907
636.399	20733.64176
636.599	20447.22717
636.799	20625.97265
636.999	20516.28409
637.199	21005.91368
637.399	20522.37757
637.599	20944.95084
637.799	21054.6866
637.999	21148.17462
638.199	21077.04164
638.399	21131.91521
638.599	20682.85298
638.799	21003.88152
638.999	20989.65656
639.199	21276.22651
639.399	20731.61016
639.599	21054.6866
639.799	20376.14423
639.999	20857.57724
640.199	20772.24296
640.399	21150.20706
640.599	20378.1751
640.799	21227.44294
640.998	20829.13167
641.198	21007.94583
641.398	21016.07451
641.598	21274.19381
641.798	21068.91248
641.997	21131.91521
642.197	21014.04233
642.397	21272.16112
642.597	21314.84848
642.796	21211.18227
642.996	20914.47081
643.196	21127.8504
643.395	20327.40461
643.595	21546.61068
643.795	21383.96511
643.994	21373.80061
644.194	21109.55895
644.394	21540.51102
644.593	21020.13887
644.793	21475.45011
644.992	21367.70195
645.192	21503.91376
645.392	21477.4832
645.591	21329.07799
645.791	20886.02362
645.99	21264.0304
646.19	21337.20923
646.389	21715.38221
646.589	21404.29441
646.788	21385.99802
646.987	21325.0124
647.187	21422.59112
647.386	20886.02362
647.586	21099.39718
647.785	20957.14311
647.984	21398.19558
648.184	21467.31778
648.383	21560.84338
648.582	21292.48821
648.782	21497.81434
648.981	21111.59132
649.18	21394.12971
649.38	21351.43906
649.579	21672.67843
649.778	21264.0304
649.977	21601.50929
650.177	21369.73483
650.376	21444.95421
650.575	21304.68466
650.774	21717.41577
650.973	21794.69379
651.173	22134.37607
651.372	21440.88816
651.571	21833.33491
651.77	21800.79493
651.969	21963.50465
652.168	21583.20944
652.367	21388.03094
652.566	21550.67715
652.765	21707.24802
652.964	21770.2896
653.163	21839.43626
653.362	21808.92983
653.561	21884.18059
653.76	21800.79493
653.959	21485.61561
654.158	21693.01335
654.357	21518.14587
654.556	21857.74054
654.755	22276.7891
654.954	21963.50465
655.153	21713.34866
655.352	21843.50385
655.551	21745.88597
655.749	21636.07656
655.948	21583.20944
656.147	21410.39328
656.346	21780.45795
656.545	21499.84747
656.743	21717.41577
656.942	21595.40931
657.141	21701.14743
657.34	21640.14337
657.538	21861.80819
657.737	21249.80178
657.936	21516.1127
658.135	21607.60932
658.333	21780.45795
658.532	21861.80819
658.731	21721.48289
658.929	21688.94633
659.128	21973.67482
659.326	21920.79097
659.525	22325.6206
659.724	22402.94143
659.922	22421.25503
660.121	21841.47005
660.319	21778.42427
660.518	21595.40931
660.716	21880.11285
660.915	21672.67843
661.113	21969.60674
661.312	21859.77436
661.51	21957.40259
661.709	22105.89566
661.907	22356.14135
662.105	22075.38174
662.304	22417.18531
662.502	22170.99483
662.701	21778.42427
662.899	21642.17678
663.097	21924.85887
663.296	22018.4247
663.494	22189.30466
663.692	22252.37415
663.891	22040.80033
664.089	21849.60526
664.287	22175.06365
664.485	21808.92983
664.684	22103.86137
664.882	22089.62146
665.08	22132.34173
665.278	22348.0024
665.476	21924.85887
665.675	22034.69784
665.873	22219.82171
666.071	22193.37355
666.269	22120.13577
666.467	22057.0738
666.665	22323.58591
666.863	21784.52531
667.061	22191.3391
667.259	21847.57146
667.457	22240.16688
667.655	21617.7761
667.853	21760.12135
668.051	22036.732
668.249	22063.17641
668.447	22374.45419
668.645	22244.23595
668.843	22099.79281
669.041	21739.78515
669.239	21420.55814
669.437	21571.00971
669.635	21680.81235
669.833	21786.559
670.031	21705.21449
670.229	21440.88816
670.426	21723.51646
670.624	21581.17614
670.822	21396.16264
671.02	21607.60932
671.218	21969.60674
671.415	22197.44246
671.613	21841.47005
671.811	22055.0396
672.009	21894.35002
672.206	21855.70671
672.404	22168.96042
672.602	21926.89282
672.799	21959.43661
672.997	22018.4247
673.195	21721.48289
673.392	21930.96074
673.59	21739.78515
673.788	21843.50385
673.985	21388.03094
674.183	21741.81875
674.38	21725.55003
674.578	21774.35693
674.775	21656.41077
674.973	21416.49218
675.17	21581.17614
675.368	21717.41577
675.565	21333.14361
675.763	21640.14337
675.96	21928.92678
676.158	21810.96357
676.355	21888.24835
676.553	22423.28989
676.75	21607.60932
676.947	21847.57146
677.145	21615.74274
677.342	22193.37355
677.539	21467.31778
677.737	21593.37598
677.934	21274.19381
678.131	21741.81875
678.329	21707.24802
678.526	21672.67843
678.723	21823.16606
678.92	22116.06715
679.118	21764.18864
679.315	21737.75155
679.512	21499.84747
679.709	21788.59269
679.906	21400.22852
680.104	21461.21858
680.301	21205.08458
680.498	21314.84848
680.695	21180.69421
680.892	21550.67715
681.089	21552.71039
681.286	22079.45022
681.483	21392.09678
681.68	21743.85236
681.877	21410.39328
682.075	21528.31179
682.272	21101.42953
682.469	21778.42427
682.665	21156.30442
682.862	21056.71886
683.059	21424.62411
683.256	21430.7231
683.453	21046.55761
683.65	21432.7561
683.847	21178.6617
684.044	21253.86708
684.241	21253.86708
684.438	21540.51102
684.635	21125.818
684.831	21290.45548
685.028	20662.5382
685.225	21304.68466
685.422	20977.46389
685.619	21298.58642
685.815	21062.81565
686.012	21298.58642
686.209	20837.25889
686.405	21331.1108
686.602	21229.47554
686.799	21318.91403
686.996	21369.73483
687.192	21030.29984
687.389	21142.07731
687.586	21066.8802
687.782	20843.35436
687.979	20847.41802
688.175	21103.46188
688.372	20967.30345
688.568	20973.3997
688.765	20695.04205
688.962	20965.27138
689.158	21095.3325
689.355	21164.43428
689.551	21070.94476
689.748	21034.36426
689.944	20855.54539
690.14	20784.43312
690.337	20951.04696
690.533	21050.6221
690.73	21018.10669
690.926	20918.53477
691.123	20902.27906
691.319	21142.07731
691.515	20428.94821
691.712	20449.25819
691.908	20526.43992
692.104	20337.5585
692.301	20416.76242
692.497	20491.9105
692.693	20199.47462
692.889	20296.94358
693.086	20577.22067
693.282	20384.26773
693.478	20745.83145
693.674	20662.5382
693.87	20753.95799
694.067	20632.06681
694.263	20636.12961
694.459	20632.06681
694.655	20560.97055
694.851	20175.1089
695.047	20301.00499
695.243	20132.47033
695.439	20353.80494
695.635	20294.91287
695.831	20278.66741
696.027	20518.31524
696.224	20439.10315
696.42	20563.0018
696.615	20593.47106
696.811	20717.38907
697.007	20487.8483
697.203	20272.57543
697.399	20449.25819
697.595	20386.29862
697.791	20398.48403
697.987	20357.86659
698.183	20628.00403
698.379	20012.6862
698.575	20550.81436
698.77	20418.79338
698.966	20187.29168
699.162	20189.32216
699.358	20221.8104
699.554	19988.32512
699.749	20284.75943
699.945	20132.47033
700.141	20099.98505
700.337	19972.08474
700.532	20073.59156
700.728	19696.03934
700.924	20047.19877
701.119	19685.89209
701.315	19827.96312
701.511	19706.1867
701.706	20233.99377
701.902	20083.74282
702.097	20010.65609
702.293	19651.39223
702.489	19622.98149
702.684	19403.84035
702.88	19637.18676
703.075	19401.8115
703.271	20079.6823
703.466	19892.91672
703.662	19760.98422
703.857	19653.4216
704.053	19882.76743
704.248	19590.51307
704.443	19722.42268
704.639	19142.15174
704.834	19655.45097
705.03	19939.60478
705.225	19899.00634
705.42	19909.15579
705.616	20233.99377
705.811	19478.91102
706.006	19858.40958
706.202	19132.01015
706.397	19598.63007
706.592	19442.38944
706.787	19416.01359
706.983	19736.62939
707.178	20179.16981
707.373	19939.60478
707.568	19625.0108
707.763	19452.53419
707.959	19730.54077
708.154	20187.29168
708.349	19793.45826
708.544	19732.57031
708.739	19280.08759
708.934	19472.82399
709.129	19375.43672
709.324	19091.44479
709.519	19673.71553
709.714	19704.15722
709.909	20075.6218
710.104	19801.57694
710.299	19657.48035
710.494	19434.27372
710.689	19596.60081
710.884	19590.51307
711.079	19517.46303
711.274	19085.36013
711.469	19523.55032
711.664	19278.05898
711.859	19982.23495
712.054	19797.5176
712.249	19606.74714
712.443	19324.71796
712.638	19200.97501
712.833	19182.71914
713.028	19706.1867
713.223	19694.00988
713.417	19637.18676
713.612	19653.4216
713.807	19848.26065
714.002	19385.58078
714.196	19560.07489
714.391	18892.69799
714.586	19314.57452
714.78	19217.20272
714.975	19172.57714
715.17	19166.49199
715.364	19113.75554
715.559	19073.19091
715.754	18967.73049
715.948	19278.05898
716.143	18925.1438
716.337	18760.89739
716.532	19188.80439
716.726	19178.66233
716.921	19416.01359
717.115	19152.29344
717.31	19091.44479
717.504	18803.47728
717.699	19038.71226
717.893	18943.39502
718.088	19026.54361
718.282	18860.2532
718.476	18977.87044
718.671	18955.56268
718.865	18813.61561
719.059	18631.14082
719.254	18614.92238
719.448	18833.89256
719.642	18884.58669
719.837	18367.62175
720.031	18600.73145
720.225	18205.488
720.419	18543.96962
720.614	18353.43409
720.808	18651.41423
721.002	18470.99458
721.196	18708.18184
721.39	18446.67067
721.585	18489.23787
721.779	18475.04862
721.973	18633.16814
722.167	17944.09669
722.361	18321.00585
722.555	18454.77858
722.749	18395.99762
722.943	18379.78274
723.137	18621.00427
723.331	18335.19308
723.525	18550.0511
723.719	18183.19647
723.913	18367.62175
724.107	18237.91285
724.301	18331.13957
724.495	18310.87222
724.689	18361.5413
724.883	18035.27292
725.077	18085.9295
725.271	18254.12562
725.465	18487.21082
725.659	18460.85955
725.853	18485.18378
726.046	18363.56811
726.24	18298.71199
726.434	18197.38194
726.628	18381.80959
726.822	18187.24944
727.015	18505.45439
727.209	17998.80156
727.403	18142.66754
727.596	18069.71915
727.79	17891.42035
727.984	18138.61473
728.177	18298.71199
728.371	17895.47229
728.565	17826.59115
728.758	18152.79964
728.952	18059.58779
729.146	18017.0371
729.339	18379.78274
729.533	18173.0641
729.726	18205.488
729.92	17921.81026
730.113	18205.488
730.307	18276.41858
730.5	17721.25117
730.694	18148.74679
730.887	18383.83644
731.081	18081.87689
731.274	18152.79964
731.468	17476.16782
731.661	17867.10898
731.854	18237.91285
732.048	18406.13204
732.241	18270.33864
732.435	18434.50892
732.628	18112.27181
732.821	17763.79121
733.014	17830.64287
733.208	18258.17885
733.401	18195.35543
733.594	17692.89196
733.788	17680.73822
733.981	17974.48797
734.174	18006.90621
734.367	18027.16807
734.56	18215.62066
734.754	18029.19428
734.947	18122.40363
735.14	18039.32536
735.333	18081.87689
735.526	18209.54105
735.719	17931.9404
735.912	17944.09669
736.105	17854.95349
736.298	17771.89425
736.491	17713.14847
736.684	17530.85173
736.877	17553.13103
737.07	17553.13103
737.263	17769.86848
737.456	17927.88833
737.649	18106.19276
737.842	18177.11704
738.035	18138.61473
738.228	18112.27181
738.421	17751.63676
738.614	18049.45653
738.807	17711.12281
739	17575.41072
739.192	17792.15207
739.385	17917.75822
739.578	17792.15207
739.771	17788.10048
739.964	17711.12281
740.156	17917.75822
740.349	17360.73148
740.542	17543.00403
740.735	17628.07336
740.927	17909.6542
741.12	17615.92025
741.313	17376.93247
741.505	17599.71628
741.698	17105.59103
741.891	17164.30975
742.083	17293.90447
742.276	17326.30504
742.468	17125.83859
742.661	17419.46099
742.854	17593.63985
743.046	17796.20367
743.239	17265.5546
743.431	17565.28354
743.624	17411.36022
743.816	17182.53329
744.009	17071.1708
744.201	17012.45578
744.393	16919.32625
744.586	16933.49778
744.778	17113.69002
744.971	17097.49208
745.163	17239.23023
745.355	17694.9176
745.548	17472.11725
745.74	17073.1955
745.932	16967.91487
746.125	17186.58299
746.317	17368.83195
746.509	16969.93943
746.702	17358.70637
746.894	17131.91292
747.086	17297.9545
747.278	17202.78194
747.471	17251.37988
747.663	16836.32414
747.855	17208.85659
748.047	17320.22987
748.239	17119.76429
748.431	16973.98856
748.623	16978.0377
748.815	16814.056
749.008	16996.25894
749.2	17081.29431
749.392	17012.45578
749.584	17160.26011
749.776	17344.53069
749.968	17117.73953
750.16	17042.82533
750.352	16874.788
750.544	17040.80068
750.736	16773.56925
750.928	16872.76357
751.12	16917.30176
751.311	16733.08347
751.503	16818.10473
751.695	16704.74399
751.887	16714.86518
752.079	17287.82945
752.271	16516.50027
752.463	17109.64052
752.654	17306.05459
752.846	17089.39317
753.038	16753.32624
753.23	16635.92145
753.421	16565.07746
753.613	16437.56493
753.805	16834.29975
753.997	16654.13892
754.188	16605.55941
754.38	16611.63178
754.572	16536.74062
754.763	16617.70416
754.955	16484.11616
755.146	16848.47053
755.338	16662.23564
755.53	16227.08527
755.721	16350.53721
755.913	16152.20777
756.104	16218.99029
756.296	16297.91752
756.487	15874.97686
756.679	16206.84788
756.87	15901.28234
757.062	16166.37361
757.253	16184.58695
757.445	16216.96655
757.636	16338.3941
757.827	16241.25155
758.019	16053.04907
758.21	16091.49792
758.401	16152.20777
758.593	16241.25155
758.784	16273.63193
758.975	16223.03778
759.167	16160.30252
759.358	16271.60815
759.549	16212.91908
759.74	16194.70553
759.932	16354.58494
760.123	16018.64793
760.314	16196.72925
760.505	15921.51747
760.696	15931.63508
760.888	16249.3466
761.079	16089.47428
761.27	15968.05876
761.461	15650.37618
761.652	15537.06841
761.843	15575.51185
762.034	16006.50645
762.225	15725.24168
762.416	15921.51747
762.607	15700.96084
762.798	15666.56321
762.989	15391.38996
763.18	15628.1191
763.371	15112.17774
763.562	15460.18221
763.753	15530.99841
763.944	15310.45849
764.135	15209.29474
764.326	15441.97244
764.517	15344.8543
764.708	15622.04901
764.899	15172.87586
765.089	15245.71364
765.28	15312.48177
765.471	15407.57632
765.662	15182.99222
765.853	15561.34845
766.043	15261.89983
766.234	15460.18221
766.425	15148.59662
766.615	15063.61918
766.806	15053.5028
766.997	14768.21694
767.187	14618.48702
767.378	14968.52497
767.569	14719.65643
767.759	14800.59037
767.95	15112.17774
768.141	15051.47952
768.331	15075.75883
768.522	15104.08465
768.712	15223.45764
768.903	15120.27082
769.093	14760.12356
769.284	14832.96361
769.474	14863.31338
769.665	14683.23572
769.855	14893.66301
770.046	15039.33986
770.236	14992.8044
770.426	14816.77701
770.617	14663.00186
770.807	14379.7155
770.998	14592.18255
771.188	14468.75116
771.378	14460.65713
771.569	14557.78411
771.759	14387.80977
771.949	14345.31455
772.139	14614.44019
772.33	14153.06442
772.52	14563.85445
772.71	14535.52611
772.9	14023.53806
773.09	14327.10209
773.281	14112.58842
773.471	14325.07848
773.661	14250.20346
773.851	14298.77132
774.041	14282.58215
774.231	14308.88949
774.421	14533.50264
774.611	14118.65987
774.802	14029.60982
774.992	14195.56332
775.182	13707.77363
775.372	13902.09815
775.562	13725.99273
775.752	14282.58215
775.942	14005.32265
776.131	14100.44545
776.321	13825.18124
776.511	14215.80057
776.701	14017.46628
776.891	14023.53806
777.081	13612.62519
777.271	14003.2987
777.461	13772.5515
777.651	13744.21157
777.84	13734.09002
778.03	13770.52724
778.22	13825.18124
778.41	13898.04999
778.599	13675.38349
778.789	13493.1728
778.979	13557.96208
779.169	13869.71257
779.358	13734.09002
779.548	13730.04138
779.738	13310.932
779.927	13244.10207
780.117	13272.45473
780.307	13349.40775
780.496	13306.88183
780.686	13501.27166
780.875	13171.19126
781.065	13630.84567
781.254	13319.03228
781.444	13768.50298
781.633	13661.21254
781.823	13869.71257
782.012	13434.45424
782.202	13531.64188
782.391	13268.4044
782.581	13260.3037
782.77	13152.96265
782.96	13304.85674
783.149	12834.91091
783.338	12907.85113
783.528	12936.21491
783.717	13003.06838
783.906	13161.0643
784.096	12873.40801
784.285	12942.29273
784.474	12849.09428
784.663	12832.88469
784.853	12743.72559
785.042	12761.96357
785.231	13296.75634
785.42	13055.73695
785.61	13035.48021
785.799	12855.17278
785.988	12924.05913
786.177	12597.80466
786.366	12962.55179
786.555	12966.60354
786.744	13023.32592
786.933	12707.24824
787.122	12978.75867
787.312	12934.18896
787.501	13124.60628
787.69	12897.72096
787.879	12883.5385
788.068	12634.28781
788.257	12877.46022
788.445	12472.12501
788.634	12494.4248
788.823	12455.90648
789.012	12512.66951
789.201	12194.32247
789.39	12056.38479
789.579	11818.96564
789.768	12303.83689
789.957	11900.14717
790.145	12131.44345
790.334	12332.22614
790.523	12275.44627
790.712	12127.38649
790.9	12236.91391
791.089	11737.77052
791.278	12281.53009
791.467	11932.61606
791.655	12034.06802
791.844	12169.98305
792.033	12046.24092
792.221	11770.25023
792.41	12030.01032
792.599	11737.77052
792.787	12032.03917
792.976	12013.77922
793.164	11983.34454
793.353	11916.38188
793.541	12074.64327
793.73	11839.26228
793.918	12196.3507
794.107	11790.54892
794.295	11969.14107
794.484	11969.14107
794.672	12038.12568
794.861	11693.10725
795.049	11908.26459
795.238	11500.19287
795.426	11845.35111
795.614	11835.20302
795.803	11788.51909
795.991	11402.68808
796.179	11577.36861
796.368	11971.17016
796.556	11705.28857
796.744	11280.77522
796.932	11552.99878
797.121	11290.93601
797.309	11459.56858
797.497	11347.83175
797.685	11668.74366
797.874	11351.89543
798.062	11390.49841
798.25	11459.56858
798.438	11485.9748
798.626	11286.87172
798.814	11282.8074
799.002	11108.00213
799.19	11227.93499
799.378	10794.77718
799.566	10983.96436
799.755	10973.79551
799.943	11065.3052
800.131	11091.73719
800.318	11179.15317
800.506	11075.47157
800.694	11412.84587
800.882	10861.9195
801.07	11191.34919
801.258	11246.22663
801.446	11351.89543
801.634	10863.95391
801.822	11114.1013
802.01	11209.64251
802.197	11270.61417
802.385	10965.66023
802.573	10819.19404
802.761	10794.77718
802.949	10990.06554
803.136	10849.71275
803.324	11026.6705
803.512	11193.38182
803.699	11136.46411
803.887	10745.93836
804.075	10882.26316
804.262	10811.05527
804.45	10998.20028
804.638	10900.57147
804.825	11132.39824
805.013	11156.79282
805.201	11357.99087
805.388	11272.6464
805.576	11042.93822
805.763	11116.13434
805.951	11083.60447
806.138	10975.8293
806.326	11488.00599
806.513	11051.07182
806.701	11384.40344
806.888	11116.13434
807.075	11357.99087
807.263	11160.85843
807.45	11321.41685
807.638	10841.57468
807.825	11319.38486
808.012	11193.38182
808.2	11370.1815
808.387	11160.85843
808.574	11416.90892
808.761	11510.34835
808.949	11429.09783
809.136	11110.0352
809.323	11260.45288
809.51	11049.03844
809.698	11077.50481
809.885	10988.03182
810.072	10796.81198
810.259	11087.67085
810.446	11010.40207
810.633	10758.14871
810.82	11042.93822
811.008	10900.57147
811.195	11323.44883
811.382	10947.35518
811.569	11331.57663
811.756	10904.63986
811.943	11372.21323
812.13	11297.03236
812.317	11396.59329
812.504	11034.80445
812.691	11378.30838
812.878	11370.1815
813.064	11323.44883
813.251	10882.26316
813.438	11339.70427
813.625	11049.03844
813.812	11185.25123
813.999	11264.51743
814.186	11211.67505
814.372	10949.38912
814.559	11026.6705
814.746	11252.32365
814.933	11477.84998
815.12	11313.28885
815.306	11166.95677
815.493	11110.0352
815.68	11274.67862
815.866	10847.67825
816.053	11120.20038
816.24	11018.53637
816.426	11134.43118
816.613	10916.84475
816.799	11057.1719
816.986	10758.14871
817.173	10941.2533
817.359	10872.09147
817.546	11105.96905
817.732	10983.96436
817.919	11311.25682
818.105	11040.90479
818.292	11136.46411
818.478	10798.84677
818.665	10908.7082
818.851	10863.95391
819.037	10800.88155
819.224	10809.02055
819.41	10778.49833
819.597	10623.81104
819.783	10733.72759
819.969	10762.21873
820.156	11079.53804
820.342	10835.47101
820.528	11077.50481
820.714	10908.7082
820.901	10912.7765
821.087	10794.77718
821.273	11134.43118
821.459	10888.36603
821.646	11124.26638
821.832	10886.33175
822.018	10776.46342
822.204	10322.3708
822.39	10542.36825
822.576	10436.46242
822.762	10528.1137
822.948	10497.56615
823.134	10839.54013
823.32	10638.06149
823.507	10937.18532
823.693	10662.48943
823.879	10863.95391
824.065	10715.41062
824.25	10874.12583
824.436	10613.63178
824.622	10906.67403
824.808	10619.73938
824.994	10591.23632
825.18	10493.49293
825.366	10750.00853
825.552	10509.78551
825.738	10373.30965
825.923	10338.67213
826.109	10839.54013
826.295	10534.22287
826.481	10631.95423
826.667	10444.61025
826.852	10422.20321
827.038	10371.27225
827.224	10326.44621
827.409	9965.55987
827.595	10291.8035
827.781	10016.55919
827.966	10220.46801
828.152	9963.51971
828.338	9949.23818
828.523	9683.87785
828.709	10106.29633
828.894	9914.55149
829.08	9890.06422
829.266	9749.22091
829.451	10228.62148
829.637	10340.70974
829.822	10202.12191
830.008	10036.95641
830.193	10061.43119
830.378	10087.94323
830.564	9990.04067
830.749	9875.77901
830.935	10018.59898
831.12	9790.0524
831.305	9726.761
831.491	9416.21298
831.676	9702.25717
831.861	9477.53438
832.047	9612.39082
832.232	9657.32774
832.417	9434.61093
832.602	9630.77502
832.788	9863.53396
832.973	9822.71326
833.158	9871.69738
833.343	9932.91556
833.528	9934.95594
833.714	9869.65655
833.899	9955.35892
834.084	9690.00443
834.269	9604.21966
834.454	9178.96437
834.639	9436.65507
834.824	9311.93294
835.009	9160.54771
835.194	9408.0357
835.379	9383.50227
835.564	9228.06873
835.749	9448.91954
835.934	9109.38308
836.119	9367.14534
836.304	9097.10197
836.489	9271.02708
836.674	9066.39647
836.859	9262.84511
837.044	9105.28944
837.228	9408.0357
837.413	9189.19525
837.598	9424.39001
837.783	9158.50133
837.968	9453.00757
838.152	9013.16436
838.337	9254.66286
838.522	9064.3493
838.707	9328.29342
838.891	9121.66357
839.076	9277.16338
839.261	9201.47174
839.445	9215.79355
839.63	8818.56094
839.815	9078.67914
839.999	8625.84526
840.184	8923.05222
840.368	8873.88566
840.553	9146.2227
840.737	8744.7741
840.922	8902.5674
841.106	8687.36794
841.291	9070.49076
841.475	8732.47399
841.66	8951.72797
841.844	8500.69718
842.029	8642.25294
842.213	8328.24601
842.397	8576.61503
842.582	8182.37656
842.766	8533.5297
842.951	8293.32855
843.135	8670.96353
843.319	8385.74486
843.504	8461.70223
843.688	8568.40894
843.872	8683.26695
844.056	8465.80729
844.241	8851.34754
844.425	8293.32855
844.609	8736.5741
844.793	8500.69718
844.977	8576.61503
845.161	8315.92285
845.346	8662.76087
845.53	8416.54156
845.714	8570.46049
845.898	8342.62215
846.082	8496.59277
846.266	8270.73188
846.45	8654.55793
846.634	8375.47832
846.818	8556.09924
847.002	8515.062
847.186	8285.11185
847.37	7956.1829
847.554	7836.81783
847.738	7952.06802
847.922	8100.15255
848.106	7859.46137
848.29	7766.81278
848.473	7799.75933
848.657	7892.39296
848.841	7857.40297
849.025	8042.57662
849.209	7884.16056
849.392	8289.22024
849.576	8038.46344
849.76	8344.67581
849.944	8009.66896
850.127	8356.99734
850.311	7888.2768
850.495	7991.15612
850.678	7950.01054
850.862	7816.23061
851.046	7548.4055
851.229	7915.03036
851.413	8017.89636
851.596	7861.51975
851.78	7634.97274
851.964	7762.69408
852.147	7472.11256
852.331	7950.01054
852.514	7344.20393
852.698	7601.99918
852.881	7511.2937
853.065	7807.99514
853.248	7604.06019
853.431	7500.98363
853.615	7329.75737
853.798	7616.42578
853.982	7667.94086
854.165	7455.61291
854.348	7371.03042
854.532	7474.17492
854.715	7234.79608
854.898	7201.75513
855.081	7174.90519
855.265	7416.42069
855.448	6912.40332
855.631	7185.23253
855.814	7063.3344
855.997	7092.26641
856.181	6697.1695
856.364	7015.79372
856.547	7236.86095
856.73	7098.46556
856.913	6902.06117
857.096	7430.86084
857.279	7133.59025
857.462	7160.44597
857.645	7026.12966
857.828	7081.93405
858.011	6887.58121
858.194	7098.46556
858.377	6695.09874
858.56	6897.92415
858.743	6659.89237
858.926	6792.39951
859.109	6593.60351
859.292	6539.72641
859.475	6643.32237
859.658	6732.36884
859.841	6519.00028
860.023	6862.75584
860.206	6680.60281
860.389	6931.01776
860.572	6728.22809
860.755	6664.03464
860.937	6583.24375
861.12	6736.5095
861.303	6514.85478
861.486	6701.31094
861.668	6380.07534
861.851	6417.40872
862.034	6297.08523
862.216	6494.12587
862.399	6203.67662
862.581	6365.55477
862.764	6157.99291
862.947	6286.70883
863.129	6120.60687
863.312	6278.4073
863.494	6209.90533
863.677	6321.98619
863.859	6270.10539
864.042	6425.704
864.224	6205.75288
864.406	6338.58495
864.589	5827.4857
864.771	6319.91123
864.954	5891.97098
865.136	6114.37513
865.318	5914.8474
865.501	6097.7561
865.683	5825.40516
865.865	6060.3578
866.048	5864.93153
866.23	6164.22317
866.412	6143.4548
866.594	6103.98841
866.777	5914.8474
866.959	5975.14429
867.141	5970.98652
867.323	5964.74969
867.505	5900.29001
867.687	5762.97775
867.869	5941.87949
868.052	5973.06542
868.234	5798.35589
868.416	5946.03792
868.598	5648.47234
868.78	5902.36971
868.962	5621.39699
869.144	5758.81517
869.326	5465.11529
869.508	5754.65249
869.69	5631.81106
869.872	5710.93868
870.054	5638.05921
870.236	5558.90021
870.417	5675.54369
870.599	5694.28307
870.781	5450.52225
870.963	5696.3651
871.145	5385.88204
871.327	5471.36911
871.508	5502.63498
871.69	5660.9673
871.872	5375.45409
872.054	5573.48469
872.235	5431.75806
872.417	5681.79036
872.599	5252.35999
872.78	5554.73301
872.962	5362.93977
873.144	5496.38223
873.325	5392.13853
873.507	5669.29681
873.689	5615.14827
873.87	5713.02053
874.052	5300.35552
874.233	5658.88487
874.415	5248.18588
874.596	5610.98233
874.778	5356.6823
874.959	5229.40124
875.141	5204.3521
875.322	5260.70793
875.503	5079.05613
875.685	5229.40124
875.866	5037.27225
876.048	5277.40268
876.229	5173.03596
876.41	5425.50291
876.592	5321.21928
876.773	5540.14705
876.954	5196.00164
877.136	5565.15085
877.317	5342.0807
877.498	5679.70816
877.679	5533.89557
877.86	5690.11893
878.042	5517.22391
878.223	5588.06802
878.404	5302.442
878.585	5402.56555
878.766	5356.6823
878.947	5513.05577
879.128	5387.96756
879.309	5577.65148
879.49	5229.40124
879.672	5610.98233
879.853	5392.13853
880.034	5448.43743
880.215	5444.26773
880.396	5379.62534
880.576	5164.6841
880.757	5513.05577
880.938	5446.35259
881.119	5644.30716
881.3	5356.6823
881.481	5706.77492
881.662	5517.22391
881.843	5394.22398
882.023	5312.87406
882.204	5577.65148
882.385	5492.21361
882.566	5419.24755
882.747	5196.00164
882.927	5625.56269
883.108	5294.09594
883.289	5556.81662
883.469	5214.78965
883.65	5438.013
883.831	5262.79485
884.011	5560.98378
884.192	5573.48469
884.373	5729.67445
884.553	5692.20101
884.734	5698.44711
884.914	5563.06733
885.095	5688.03682
885.275	5373.36843
885.456	5608.89933
885.636	5467.19992
885.817	5796.27501
885.997	5523.47596
886.178	5873.25178
886.358	5475.5382
886.538	5617.2312
886.719	5533.89557
886.899	5579.73483
887.08	5283.66283
887.26	5446.35259
887.44	5204.3521
887.621	5358.76814
887.801	5248.18588
887.981	5692.20101
888.161	5654.71993
888.342	5731.75608
888.522	5573.48469
888.702	5585.98476
888.882	5375.45409
889.062	5446.35259
889.242	5640.14188
889.423	5525.55993
889.603	5408.82147
889.783	5517.22391
889.963	5367.1113
890.143	5471.36911
890.323	5331.65028
890.503	5563.06733
890.683	5613.06531
890.863	5738.00084
891.043	5517.22391
891.223	5679.70816
891.403	5488.0449
891.583	5667.21447
891.763	5367.1113
891.943	5506.80337
892.122	5569.31782
892.302	5650.55489
892.482	5527.64387
892.662	5592.23447
892.842	5467.19992
893.022	5640.14188
893.201	5427.58798
893.381	5621.39699
893.561	5438.013
893.741	5837.88809
893.92	5196.00164
894.1	5456.77655
894.28	5321.21928
894.459	5479.70719
894.639	5053.98691
894.819	5154.24376
894.998	4932.77212
895.178	5187.65081
895.357	4761.26783
895.537	5193.91397
895.716	5062.34369
895.896	5250.27295
896.075	4945.31517
896.255	5014.28716
896.434	4702.67039
896.614	5104.12202
896.793	4953.67675
896.973	5122.91924
897.152	4788.46775
897.331	5137.538
897.511	4953.67675
897.69	4861.67921
897.87	4815.66384
898.049	4836.58128
898.228	4784.2834
898.407	4595.89399
898.587	4522.58246
898.766	4761.26783
898.945	4436.66879
899.124	4725.69292
899.304	4633.58643
899.483	4612.64708
899.662	4589.61121
899.841	4811.48007
900.02	4484.86882
900.199	4646.14897
900.378	4474.39154
900.557	4778.0067
900.737	4669.17819
900.916	4618.92912
901.095	4480.67798
901.274	4591.70549
901.453	4312.97241
901.632	4631.4926
901.811	4455.53105
901.989	4526.77242
902.168	4245.85139
902.347	4344.4278
902.526	3905.7208
902.705	4166.11682
902.884	4065.35602
903.063	4092.65015
903.242	4010.75726
903.42	4134.63425
903.599	4073.75459
903.778	4329.74922
903.957	3991.85446
904.135	4136.73323
904.314	3678.67203
904.493	4149.3267
904.672	3739.66121
904.85	3935.13612
905.029	3935.13612
905.207	3872.09847
905.386	3691.29181
905.565	3949.8423
905.743	3552.43681
905.922	3758.58558
906.1	3579.79349
906.279	3796.42959
906.457	3478.76873
906.636	3712.32323
906.814	3554.54128
906.993	3571.37638
907.171	3388.23195
907.35	3518.76275
907.528	3280.80902
907.707	3514.55316
907.885	3215.49106
908.063	3293.44934
908.242	3141.72584
908.42	3120.64642
908.598	2943.51752
908.777	3306.08904
908.955	3036.31287
909.133	3152.26495
909.311	2897.10903
909.49	2882.34122
909.668	2861.24313
909.846	3040.53014
910.024	2848.5836
910.202	3251.31258
910.38	2987.80985
910.559	3181.7723
910.737	2973.04647
910.915	3217.59834
911.093	2909.76659
911.271	3249.20557
911.449	3038.42151
911.627	3236.56313
911.805	3089.02428
911.983	3240.77734
912.161	2899.21866
912.339	3285.02253
912.517	3089.02428
912.695	3051.07305
912.872	2821.15287
913.05	3145.94153
913.228	2954.06391
913.406	3122.75443
913.584	3177.55716
913.762	3065.83246
913.939	3095.349
914.117	3211.27644
914.295	3065.83246
914.473	3105.88987
914.65	2979.37373
914.828	3152.26495
915.006	2977.26466
915.184	3228.1345
915.361	3120.64642
915.539	3261.84741
915.716	2945.62682
915.894	2962.50075
916.072	2829.59335
916.249	3055.2901
916.427	2844.36364
916.604	3000.46359
916.782	2797.94042
916.959	2932.97076
917.137	2831.70343
917.314	3141.72584
917.492	2888.67037
917.669	3107.99799
917.847	2996.24574
918.024	2899.21866
918.201	2624.85136
918.379	2835.92356
918.556	2626.96272
918.733	2806.38151
918.911	2848.5836
919.088	2823.26301
919.265	2559.39313
919.442	2772.61586
919.62	2610.07149
919.797	2865.46287
919.974	2477.02641
920.151	2603.73707
920.328	2550.94607
920.506	2797.94042
920.683	2527.71569
920.86	2523.49183
921.037	2525.60376
921.214	2656.52047
921.391	2354.50146
921.568	2504.48391
921.745	2261.5289
921.922	2417.88087
922.099	2346.05019
922.276	2736.73607
922.453	2462.24082
922.63	2624.85136
922.807	2210.80904
922.984	2565.7283
923.161	2365.06534
923.338	2443.23
923.514	2356.61426
923.691	2407.31828
923.868	2303.79144
924.045	2341.82449
924.222	2219.2627
924.399	2136.83376
924.575	1861.99132
924.752	2229.82958
924.929	2117.80995
925.105	2261.5289
925.282	2069.19075
925.459	2242.50955
925.635	1830.27237
925.812	1931.76896
925.989	1796.43769
926.165	1792.20828
926.342	1855.64762
926.518	2054.39283
926.695	1851.41846
926.871	1885.25118
927.048	1745.68368
927.224	1967.71264
927.401	1785.86413
927.577	1842.96008
927.754	1608.21539
927.93	1754.14283
928.107	1669.54884
928.283	1967.71264
928.459	1741.45408
928.636	2007.88288
928.812	1864.10588
928.988	2029.02418
929.165	1667.43393
929.341	1777.4052
929.517	1699.15732
929.693	1764.71669
929.87	1618.79026
930.046	1654.7444
930.222	1424.20765
930.398	1633.59499
930.574	1534.1901
930.751	1606.10041
930.927	1341.72126
931.103	1678.00847
931.279	1356.52639
931.455	1521.49989
931.631	1337.49123
931.807	1540.53519
931.983	1314.22621
932.159	1515.15477
932.335	1096.3971
932.511	1447.47322
932.687	1223.28361
932.863	1293.07638
933.039	1170.4125
933.215	1403.05717
933.391	1126.00261
933.566	1204.24977
933.742	1090.05319
933.918	1157.72378
934.094	916.67325
934.27	1013.92998
934.445	916.67325
934.621	1026.61666
934.797	853.25348
934.973	973.75696
935.148	726.4382
935.324	857.48123
935.5	756.02526
935.675	868.05076
935.851	620.78794
936.027	916.67325
936.202	648.25418
936.378	796.18231
936.553	553.18786
936.729	696.85324
936.904	437.03357
937.08	633.46441
937.255	451.81433
937.431	502.49691
937.606	350.47639
937.782	472.93102
937.957	318.81625
938.133	479.26632
938.308	337.81186
938.483	377.91833
938.659	291.38072
938.834	346.25481
939.009	293.49103
939.185	304.04289
939.36	232.29947
939.535	297.71172
939.71	278.71921
939.886	318.81625
940.061	251.28824
940.236	282.93964
940.411	301.93248
940.586	282.93964
940.761	232.29947
940.937	259.7282
941.112	164.79683
941.287	192.21728
941.462	232.29947
941.637	194.32669
941.812	99.42397
941.987	297.71172
942.162	198.54556
942.337	217.53151
942.512	131.05342
942.687	147.92445
942.862	162.68771
943.037	128.94464
943.212	112.07516
943.386	190.10789
943.561	223.86052
943.736	192.21728
943.911	173.23352
944.086	223.86052
944.26	190.10789
944.435	158.46953
944.61	147.92445
944.785	112.07516
944.959	139.48876
945.134	95.20708
945.309	169.01513
945.483	72.0158
945.658	95.20708
945.833	213.31227
946.007	171.12431
946.182	135.27105
946.357	194.32669
946.531	118.40105
946.706	179.56125
946.88	21.42623
947.055	177.45199
947.229	187.99852
947.404	109.96657
947.578	266.05836
947.752	101.53244
947.927	139.48876
948.101	139.48876
948.276	95.20708
948.45	217.53151
948.624	173.23352
948.799	156.36047
948.973	215.42188
949.147	114.18377
949.321	221.75083
949.496	114.18377
949.67	234.40925
949.844	143.70656
950.018	162.68771
950.193	198.54556
950.367	181.67054
950.541	177.45199
950.715	190.10789
950.889	63.58328
951.063	215.42188
951.237	192.21728
951.411	177.45199
951.585	215.42188
951.759	183.77985
951.933	154.25143
952.107	185.88917
952.281	187.99852
952.455	223.86052
952.629	234.40925
952.803	225.97022
952.977	133.16222
953.151	251.28824
953.325	173.23352
953.499	135.27105
953.672	160.57861
953.846	181.67054
954.02	183.77985
954.194	156.36047
954.368	257.61818
954.541	190.10789
954.715	232.29947
954.889	185.88917
955.062	90.99028
955.236	215.42188
955.41	131.05342
955.583	202.76452
955.757	181.67054
955.93	169.01513
956.104	158.46953
956.278	160.57861
956.451	185.88917
956.625	156.36047
956.798	162.68771
956.972	236.51906
957.145	126.83588
957.319	139.48876
957.492	257.61818
957.665	261.83823
957.839	190.10789
958.012	99.42397
958.185	150.03342
958.359	175.34274
958.532	185.88917
958.705	175.34274
958.879	257.61818
959.052	280.82941
959.225	162.68771
959.398	228.07995
959.572	139.48876
959.745	139.48876
959.918	139.48876
960.091	190.10789
960.264	139.48876
960.438	143.70656
960.611	177.45199
960.784	183.77985
960.957	150.03342
961.13	166.90597
961.303	154.25143
961.476	124.72714
961.649	179.56125
961.822	183.77985
961.995	179.56125
962.168	118.40105
962.341	236.51906
962.514	215.42188
962.686	228.07995
962.859	126.83588
963.032	200.65503
963.205	215.42188
963.378	143.70656
963.551	202.76452
963.723	194.32669
963.896	215.42188
964.069	166.90597
964.242	202.76452
964.414	147.92445
964.587	196.43612
964.76	141.59765
964.932	99.42397
965.105	215.42188
965.278	171.12431
965.45	131.05342
965.623	88.88192
965.795	169.01513
965.968	200.65503
966.14	202.76452
966.313	154.25143
966.485	137.37989
966.658	194.32669
966.83	141.59765
967.003	141.59765
967.175	196.43612
967.348	268.16846
967.52	143.70656
967.692	215.42188
967.865	183.77985
968.037	154.25143
968.209	175.34274
968.382	150.03342
968.554	179.56125
968.726	122.61842
968.898	173.23352
969.071	139.48876
969.243	169.01513
969.415	156.36047
969.587	141.59765
969.759	118.40105
969.932	194.32669
970.104	72.0158
970.276	139.48876
970.448	135.27105
970.62	202.76452
970.792	80.44868
970.964	131.05342
971.136	118.40105
971.308	156.36047
971.48	114.18377
971.652	156.36047
971.824	177.45199
971.996	156.36047
972.168	67.79949
972.339	93.09867
972.511	118.40105
972.683	131.05342
972.855	139.48876
973.027	147.92445
973.199	97.31551
973.37	88.88192
973.542	82.55695
973.714	88.88192
973.886	122.61842
974.057	74.12398
974.229	42.50359
974.401	82.55695
974.572	116.2924
974.744	93.09867
974.915	169.01513
975.087	152.14241
975.259	116.2924
975.43	72.0158
975.602	74.12398
975.773	55.15113
975.945	48.82725
976.116	93.09867
976.288	97.31551
976.459	116.2924
976.63	114.18377
976.802	55.15113
976.973	126.83588
977.145	109.96657
977.316	57.25913
977.487	90.99028
977.659	169.01513
977.83	101.53244
978.001	112.07516
978.172	116.2924
978.344	107.85801
978.515	143.70656
978.686	61.47521
978.857	59.36716
979.028	160.57861
979.2	107.85801
979.371	135.27105
979.542	131.05342
979.713	27.74919
979.884	128.94464
980.055	95.20708
980.226	131.05342
980.397	65.69137
980.568	31.96461
980.739	118.40105
980.91	46.71934
981.081	101.53244
981.252	103.64094
981.423	133.16222
981.594	116.2924
981.765	93.09867
981.936	67.79949
982.106	31.96461
982.277	55.15113
982.448	76.23219
982.619	48.82725
982.79	114.18377
982.96	53.04315
983.131	107.85801
983.302	55.15113
983.472	29.85689
983.643	166.90597
983.814	190.10789
983.984	59.36716
984.155	90.99028
984.326	74.12398
984.496	4.56604
984.667	114.18377
984.837	72.0158
985.008	67.79949
985.178	50.93519
985.349	31.96461
985.519	126.83588
985.69	29.85689
985.86	40.39575
986.031	63.58328
986.201	0.35123
986.371	38.28793
986.542	72.0158
986.712	-14.39983
986.882	61.47521
987.053	84.66525
987.223	84.66525
987.393	42.50359
987.563	-3.86348
987.734	63.58328
987.904	-16.50703
988.074	97.31551
988.244	82.55695
988.414	19.31862
988.585	-10.18537
988.755	21.42623
988.925	55.15113
989.095	114.18377
989.265	61.47521
989.435	55.15113
989.605	38.28793
989.775	46.71934
989.945	59.36716
990.115	29.85689
990.285	25.64151
990.455	63.58328
990.625	50.93519
990.795	76.23219
990.965	116.2924
991.134	131.05342
991.304	15.10348
991.474	63.58328
991.644	93.09867
991.814	50.93519
991.984	19.31862
992.153	34.07236
992.323	99.42397
992.493	-10.18537
992.662	50.93519
992.832	15.10348
993.002	38.28793
993.171	78.34042
993.341	-12.29261
993.511	67.79949
993.68	12.99594
993.85	21.42623
994.019	4.56604
994.189	42.50359
994.358	4.56604
994.528	63.58328
994.697	74.12398
994.867	21.42623
995.036	63.58328
995.206	101.53244
995.375	48.82725
995.544	10.88843
995.714	15.10348
995.883	48.82725
996.052	40.39575
996.222	57.25913
996.391	19.31862
996.56	101.53244
996.73	25.64151
996.899	29.85689
997.068	-3.86348
997.237	4.56604
997.406	59.36716
997.576	19.31862
997.745	12.99594
997.914	74.12398
998.083	6.67348
998.252	84.66525
998.421	76.23219
998.59	27.74919
998.759	-8.0781
998.928	42.50359
999.097	80.44868
999.266	31.96461
999.435	29.85689
999.604	34.07236
999.773	55.15113
999.942	63.58328
1000.111	97.31551
1000.28	6.67348
1000.448	-35.47071
1000.617	80.44868
1000.786	46.71934
1000.955	25.64151
1001.124	29.85689
1001.292	109.96657
1001.461	27.74919
1001.63	31.96461
1001.798	17.21104
1001.967	50.93519
1002.136	29.85689
1002.304	36.18013
1002.473	116.2924
1002.642	72.0158
1002.81	84.66525
1002.979	48.82725
1003.147	59.36716
1003.316	46.71934
1003.484	44.61145
1003.653	2.45862
1003.821	-10.18537
1003.99	65.69137
1004.158	29.85689
1004.327	29.85689
1004.495	48.82725
1004.663	-29.1497
1004.832	38.28793
1005	63.58328
1005.168	38.28793
1005.337	53.04315
1005.505	50.93519
1005.673	21.42623
1005.842	29.85689
1006.01	97.31551
1006.178	-88.13691
1006.346	4.56604
1006.514	29.85689
1006.683	27.74919
1006.851	61.47521
1007.019	44.61145
1007.187	48.82725
1007.355	44.61145
1007.523	55.15113
1007.691	21.42623
1007.859	12.99594
1008.027	15.10348
1008.195	12.99594
1008.363	15.10348
1008.531	67.79949
1008.699	72.0158
1008.867	-31.25673
1009.035	46.71934
1009.203	2.45862
1009.37	44.61145
1009.538	46.71934
1009.706	63.58328
1009.874	6.67348
1010.042	63.58328
1010.209	65.69137
1010.377	36.18013
1010.545	57.25913
1010.713	122.61842
1010.88	8.78094
1011.048	42.50359
1011.216	4.56604
1011.383	48.82725
1011.551	-43.89836
1011.718	19.31862
1011.886	4.56604
1012.054	48.82725
1012.221	44.61145
1012.389	86.77357
1012.556	42.50359
1012.724	-54.43236
1012.891	21.42623
1013.058	2.45862
1013.226	6.67348
1013.393	19.31862
1013.561	40.39575
1013.728	46.71934
1013.895	21.42623
1014.063	-18.61421
1014.23	0.35123
1014.397	4.56604
1014.565	76.23219
1014.732	-8.0781
1014.899	48.82725
1015.066	82.55695
1015.233	21.42623
1015.401	139.48876
1015.568	46.71934
1015.735	42.50359
1015.902	40.39575
1016.069	-37.57766
1016.236	65.69137
1016.403	76.23219
1016.57	-8.0781
1016.737	-18.61421
1016.904	72.0158
1017.071	-16.50703
1017.238	6.67348
1017.405	23.53386
1017.572	-20.72135
1017.739	23.53386
1017.906	23.53386
1018.073	55.15113
1018.24	-1.75614
1018.407	31.96461
1018.573	40.39575
1018.74	31.96461
1018.907	-8.0781
1019.074	80.44868
1019.241	-35.47071
1019.407	-10.18537
1019.574	8.78094
1019.741	12.99594
1019.907	109.96657
1020.074	15.10348
1020.241	21.42623
1020.407	84.66525
1020.574	38.28793
1020.74	72.0158
1020.907	19.31862
1021.073	46.71934
1021.24	42.50359
1021.406	67.79949
1021.573	-20.72135
1021.739	40.39575
1021.906	42.50359
1022.072	2.45862
1022.239	23.53386
1022.405	34.07236
1022.571	29.85689
1022.738	29.85689
1022.904	29.85689
1023.07	116.2924
1023.237	4.56604
1023.403	50.93519
1023.569	-8.0781
1023.735	2.45862
1023.902	-20.72135
1024.068	4.56604
1024.234	17.21104
1024.4	59.36716
1024.566	-1.75614
1024.732	12.99594
1024.898	-79.71139
1025.065	67.79949
1025.231	59.36716
1025.397	10.88843
1025.563	31.96461
1025.729	-16.50703
1025.895	124.72714
1026.061	95.20708
1026.227	21.42623
1026.392	36.18013
1026.558	12.99594
1026.724	46.71934
1026.89	-29.1497
1027.056	4.56604
1027.222	34.07236
1027.388	78.34042
1027.553	17.21104
1027.719	103.64094
1027.885	59.36716
1028.051	76.23219
1028.216	42.50359
1028.382	59.36716
1028.548	12.99594
1028.713	17.21104
1028.879	55.15113
1029.045	23.53386
1029.21	19.31862
1029.376	19.31862
1029.541	-67.07234
1029.707	-20.72135
1029.873	65.69137
1030.038	38.28793
1030.204	21.42623
1030.369	38.28793
1030.534	4.56604
1030.7	38.28793
1030.865	48.82725
1031.031	12.99594
1031.196	17.21104
1031.361	-12.29261
1031.527	-16.50703
1031.692	50.93519
1031.857	59.36716
1032.023	-46.00521
1032.188	50.93519
1032.353	65.69137
1032.518	15.10348
1032.684	-18.61421
1032.849	27.74919
1033.014	122.61842
1033.179	55.15113
1033.344	40.39575
1033.509	-3.86348
1033.674	17.21104
1033.839	44.61145
1034.004	29.85689
1034.17	-22.82848
1034.335	48.82725
1034.5	-3.86348
1034.664	114.18377
1034.829	80.44868
1034.994	21.42623
1035.159	15.10348
1035.324	97.31551
1035.489	4.56604
1035.654	27.74919
1035.819	46.71934
1035.984	99.42397
1036.148	17.21104
1036.313	34.07236
1036.478	63.58328
1036.643	42.50359
1036.807	6.67348
1036.972	29.85689
1037.137	-37.57766
1037.301	4.56604
1037.466	63.58328
1037.631	46.71934
1037.795	27.74919
1037.96	150.03342
1038.124	15.10348
1038.289	-37.57766
1038.454	69.90763
1038.618	97.31551
1038.783	19.31862
1038.947	4.56604
1039.111	8.78094
1039.276	55.15113
1039.44	19.31862
1039.605	-3.86348
1039.769	12.99594
1039.933	38.28793
1040.098	57.25913
1040.262	50.93519
1040.426	17.21104
1040.591	12.99594
1040.755	29.85689
1040.919	38.28793
1041.083	72.0158
1041.248	12.99594
1041.412	-33.36373
1041.576	-14.39983
1041.74	8.78094
1041.904	31.96461
1042.068	29.85689
1042.232	48.82725
1042.397	48.82725
1042.561	-10.18537
1042.725	-56.53909
1042.889	17.21104
1043.053	17.21104
1043.217	59.36716
1043.381	6.67348
1043.544	12.99594
1043.708	-3.86348
1043.872	50.93519
1044.036	2.45862
1044.2	23.53386
1044.364	-20.72135
1044.528	55.15113
1044.691	-29.1497
1044.855	-14.39983
1045.019	29.85689
1045.183	8.78094
1045.346	12.99594
1045.51	23.53386
1045.674	63.58328
1045.837	17.21104
1046.001	-29.1497
1046.165	93.09867
1046.328	0.35123
1046.492	-35.47071
1046.655	55.15113
1046.819	4.56604
1046.983	-18.61421
1047.146	38.28793
1047.31	55.15113
1047.473	8.78094
1047.636	-46.00521
1047.8	17.21104
1047.963	29.85689
1048.127	118.40105
1048.29	53.04315
