Data from Scatter_Coeff_Baseline_USB4F045381__19__0019.txt Node

Date: Thu Feb 13 19:19:45 EST 2025
User: mmckonesweet
Spectrometer: USB4F04538
Trigger mode: 4
Integration Time (sec): 2.400000E-3
Scans to average: 1
Electric dark correction enabled: true
Nonlinearity correction enabled: true
Boxcar width: 0
XAxis mode: Wavelengths
Number of Pixels in Spectrum: 3648
>>>>>Begin Spectral Data<<<<<
345.52	18.79172
345.736	18.79172
345.952	18.79172
346.168	-10.71218
346.384	20.89932
346.6	18.79172
346.816	25.11459
347.032	-4.39031
347.248	-21.24814
347.464	-14.92664
347.68	-14.92664
347.896	1.93177
348.112	37.76098
348.328	-0.17561
348.544	14.57659
348.76	12.46906
348.975	-54.95905
349.191	48.30027
349.407	-42.31821
349.623	-42.31821
349.839	-48.63874
350.055	-48.63874
350.27	1.93177
350.486	-82.34441
350.702	-71.81209
350.918	-21.24814
351.133	-25.46235
351.349	-17.03383
351.565	-29.67646
351.781	-19.141
351.996	-38.10439
352.212	-63.38577
352.428	-35.99745
352.644	12.46906
352.859	-29.67646
353.075	-0.17561
353.291	-17.03383
353.506	4.03918
353.722	-57.06577
353.938	-25.46235
354.153	-46.53192
354.369	31.43768
354.584	-4.39031
354.8	10.36155
355.016	-2.28298
355.231	-6.49763
355.447	27.22227
355.662	-48.63874
355.878	8.25407
356.093	-6.49763
356.309	86.24649
356.524	33.54542
356.74	-65.49239
356.955	-12.81942
357.171	-27.56942
357.386	-48.63874
357.602	56.73213
357.817	-27.56942
358.033	-31.78348
358.248	-31.78348
358.464	31.43768
358.679	-57.06577
358.895	-40.21131
359.11	-57.06577
359.325	-25.46235
359.541	-33.89048
359.756	-118.14944
359.972	16.68414
360.187	-12.81942
360.402	-19.141
360.618	14.57659
360.833	-29.67646
361.048	-59.17246
361.264	-14.92664
361.479	-23.35526
361.694	12.46906
361.909	-10.71218
362.125	44.08449
362.34	-61.27913
362.555	10.36155
362.77	-27.56942
362.986	18.79172
363.201	-46.53192
363.416	6.14661
363.631	-10.71218
363.847	-14.92664
364.062	12.46906
364.277	4.03918
364.492	-73.91861
364.707	10.36155
364.922	-65.49239
365.138	16.68414
365.353	-86.55716
365.568	-21.24814
365.783	-12.81942
365.998	31.43768
366.213	-27.56942
366.428	-14.92664
366.643	16.68414
366.858	-57.06577
367.073	-31.78348
367.288	-48.63874
367.503	63.05626
367.718	-38.10439
367.933	39.86879
368.148	44.08449
368.363	-27.56942
368.578	-29.67646
368.793	-14.92664
369.008	-33.89048
369.223	14.57659
369.438	-31.78348
369.653	-57.06577
369.868	-54.95905
370.083	-12.81942
370.298	41.97663
370.513	16.68414
370.728	-0.17561
370.943	18.79172
371.157	10.36155
371.372	-40.21131
371.587	-17.03383
371.802	-86.55716
372.017	-35.99745
372.232	1.93177
372.446	-6.49763
372.661	-4.39031
372.876	-31.78348
373.091	18.79172
373.306	1.93177
373.52	-21.24814
373.735	-25.46235
373.95	8.25407
374.165	-50.74553
374.379	58.84015
374.594	-31.78348
374.809	10.36155
375.023	6.14661
375.238	29.32996
375.453	-6.49763
375.667	37.76098
375.882	-12.81942
376.097	-31.78348
376.311	-14.92664
376.526	6.14661
376.741	4.03918
376.955	-48.63874
377.17	12.46906
377.384	-14.92664
377.599	-6.49763
377.813	-48.63874
378.028	-40.21131
378.242	-38.10439
378.457	-6.49763
378.672	58.84015
378.886	-19.141
379.101	-23.35526
379.315	-19.141
379.53	-59.17246
379.744	-2.28298
379.958	-48.63874
380.173	4.03918
380.387	1.93177
380.602	14.57659
380.816	-65.49239
381.031	-23.35526
381.245	23.00695
381.459	56.73213
381.674	-23.35526
381.888	44.08449
382.103	-33.89048
382.317	-19.141
382.531	29.32996
382.746	-29.67646
382.96	1.93177
383.174	39.86879
383.388	-10.71218
383.603	-12.81942
383.817	18.79172
384.031	10.36155
384.246	-40.21131
384.46	-14.92664
384.674	-23.35526
384.888	10.36155
385.103	-44.42508
385.317	4.03918
385.531	-46.53192
385.745	-12.81942
385.959	-19.141
386.174	14.57659
386.388	-80.238
386.602	18.79172
386.816	-35.99745
387.03	86.24649
387.244	-67.59898
387.458	-23.35526
387.672	12.46906
387.887	20.89932
388.101	-57.06577
388.315	-57.06577
388.529	18.79172
388.743	-6.49763
388.957	-42.31821
389.171	-54.95905
389.385	-54.95905
389.599	-40.21131
389.813	-25.46235
390.027	-48.63874
390.241	-23.35526
390.455	-46.53192
390.669	-19.141
390.883	6.14661
391.097	-27.56942
391.311	14.57659
391.525	41.97663
391.738	-63.38577
391.952	-35.99745
392.166	-17.03383
392.38	23.00695
392.594	27.22227
392.808	-69.70555
393.022	33.54542
393.236	-2.28298
393.449	-38.10439
393.663	18.79172
393.877	-44.42508
394.091	31.43768
394.305	-73.91861
394.518	-25.46235
394.732	-50.74553
394.946	-35.99745
395.16	-61.27913
395.373	-90.7698
395.587	6.14661
395.801	39.86879
396.015	-40.21131
396.228	-14.92664
396.442	1.93177
396.656	-40.21131
396.869	-48.63874
397.083	48.30027
397.297	-57.06577
397.51	-46.53192
397.724	-38.10439
397.938	-48.63874
398.151	12.46906
398.365	18.79172
398.578	35.65319
398.792	-50.74553
399.005	-31.78348
399.219	-40.21131
399.433	1.93177
399.646	18.79172
399.86	-27.56942
400.073	-29.67646
400.287	23.00695
400.5	27.22227
400.714	-52.8523
400.927	-8.60492
401.141	-21.24814
401.354	-50.74553
401.567	-12.81942
401.781	-14.92664
401.994	-29.67646
402.208	-12.81942
402.421	16.68414
402.635	60.94819
402.848	23.00695
403.061	-14.92664
403.275	-21.24814
403.488	-31.78348
403.701	-29.67646
403.915	23.00695
404.128	-10.71218
404.341	-21.24814
404.555	-65.49239
404.768	29.32996
404.981	-29.67646
405.195	-19.141
405.408	-73.91861
405.621	1.93177
405.834	18.79172
406.048	-40.21131
406.261	-21.24814
406.474	-29.67646
406.687	-40.21131
406.9	-73.91861
407.114	-48.63874
407.327	-48.63874
407.54	12.46906
407.753	52.51615
407.966	-27.56942
408.179	-25.46235
408.392	14.57659
408.605	65.16435
408.819	-48.63874
409.032	-21.24814
409.245	-12.81942
409.458	-40.21131
409.671	-78.13156
409.884	18.79172
410.097	1.93177
410.31	20.89932
410.523	10.36155
410.736	-63.38577
410.949	-35.99745
411.162	37.76098
411.375	10.36155
411.588	-73.91861
411.801	-35.99745
412.014	-97.08857
412.227	-42.31821
412.44	-23.35526
412.653	35.65319
412.865	-23.35526
413.078	27.22227
413.291	-40.21131
413.504	-80.238
413.717	-31.78348
413.93	8.25407
414.143	-52.8523
414.356	-19.141
414.568	23.00695
414.781	-31.78348
414.994	84.13817
415.207	-6.49763
415.42	48.30027
415.632	-27.56942
415.845	-33.89048
416.058	-14.92664
416.271	-99.19478
416.483	-27.56942
416.696	-14.92664
416.909	-54.95905
417.121	-35.99745
417.334	18.79172
417.547	-33.89048
417.759	-65.49239
417.972	10.36155
418.185	-63.38577
418.397	-6.49763
418.61	-33.89048
418.823	4.03918
419.035	18.79172
419.248	27.22227
419.46	-90.7698
419.673	-65.49239
419.885	14.57659
420.098	71.48875
420.311	-54.95905
420.523	-6.49763
420.736	69.38059
420.948	-12.81942
421.161	-10.71218
421.373	14.57659
421.586	-23.35526
421.798	35.65319
422.01	-90.7698
422.223	-17.03383
422.435	-52.8523
422.648	20.89932
422.86	-6.49763
423.073	-57.06577
423.285	-2.28298
423.497	-25.46235
423.71	10.36155
423.922	-21.24814
424.134	-23.35526
424.347	-23.35526
424.559	-21.24814
424.771	-10.71218
424.984	-71.81209
425.196	-78.13156
425.408	-97.08857
425.621	25.11459
425.833	-63.38577
426.045	8.25407
426.257	44.08449
426.47	-40.21131
426.682	1.93177
426.894	4.03918
427.106	-21.24814
427.318	-31.78348
427.531	35.65319
427.743	31.43768
427.955	-14.92664
428.167	6.14661
428.379	23.00695
428.591	31.43768
428.804	31.43768
429.016	-65.49239
429.228	-10.71218
429.44	10.36155
429.652	4.03918
429.864	27.22227
430.076	37.76098
430.288	56.73213
430.5	-76.0251
430.712	1.93177
430.924	-54.95905
431.136	-40.21131
431.348	-6.49763
431.56	-35.99745
431.772	-67.59898
431.984	-6.49763
432.196	56.73213
432.408	-14.92664
432.62	-40.21131
432.832	37.76098
433.044	-40.21131
433.256	-6.49763
433.468	-33.89048
433.679	-35.99745
433.891	-42.31821
434.103	-29.67646
434.315	41.97663
434.527	-21.24814
434.739	-23.35526
434.95	-40.21131
435.162	12.46906
435.374	20.89932
435.586	-14.92664
435.798	-61.27913
436.009	33.54542
436.221	35.65319
436.433	-65.49239
436.645	-29.67646
436.856	-14.92664
437.068	-10.71218
437.28	-19.141
437.491	35.65319
437.703	-19.141
437.915	8.25407
438.126	-44.42508
438.338	-4.39031
438.55	12.46906
438.761	-14.92664
438.973	14.57659
439.184	-38.10439
439.396	27.22227
439.608	-44.42508
439.819	-14.92664
440.031	-27.56942
440.242	63.05626
440.454	-23.35526
440.665	-2.28298
440.877	-35.99745
441.088	-6.49763
441.3	-10.71218
441.511	-19.141
441.723	33.54542
441.934	-54.95905
442.146	-23.35526
442.357	-82.34441
442.569	-31.78348
442.78	-35.99745
442.991	35.65319
443.203	-14.92664
443.414	14.57659
443.626	-46.53192
443.837	-86.55716
444.048	-27.56942
444.26	-54.95905
444.471	1.93177
444.682	-54.95905
444.894	-10.71218
445.105	10.36155
445.316	-31.78348
445.528	25.11459
445.739	-80.238
445.95	-73.91861
446.161	-48.63874
446.373	-31.78348
446.584	-88.66349
446.795	-23.35526
447.006	-94.98234
447.217	-6.49763
447.429	-44.42508
447.64	35.65319
447.851	1.93177
448.062	-19.141
448.273	1.93177
448.484	8.25407
448.695	27.22227
448.907	12.46906
449.118	-65.49239
449.329	4.03918
449.54	-31.78348
449.751	-61.27913
449.962	-76.0251
450.173	-6.49763
450.384	-10.71218
450.595	44.08449
450.806	14.57659
451.017	41.97663
451.228	-31.78348
451.439	-31.78348
451.65	-27.56942
451.861	-12.81942
452.072	-6.49763
452.283	-23.35526
452.494	-29.67646
452.705	-23.35526
452.915	-10.71218
453.126	-57.06577
453.337	-90.7698
453.548	-10.71218
453.759	-80.238
453.97	-46.53192
454.181	6.14661
454.391	-23.35526
454.602	-86.55716
454.813	27.22227
455.024	-31.78348
455.235	-52.8523
455.445	27.22227
455.656	8.25407
455.867	-10.71218
456.078	-33.89048
456.288	-78.13156
456.499	-10.71218
456.71	29.32996
456.921	-19.141
457.131	-42.31821
457.342	23.00695
457.553	-12.81942
457.763	-14.92664
457.974	46.19237
458.184	-23.35526
458.395	-94.98234
458.606	1.93177
458.816	18.79172
459.027	-92.87609
459.237	-10.71218
459.448	-27.56942
459.659	44.08449
459.869	-14.92664
460.08	-63.38577
460.29	-17.03383
460.501	46.19237
460.711	-38.10439
460.922	50.4082
461.132	-46.53192
461.343	6.14661
461.553	44.08449
461.764	-52.8523
461.974	-10.71218
462.184	-44.42508
462.395	-31.78348
462.605	16.68414
462.816	29.32996
463.026	20.89932
463.236	52.51615
463.447	8.25407
463.657	50.4082
463.867	-29.67646
464.078	-73.91861
464.288	-57.06577
464.498	-31.78348
464.709	-33.89048
464.919	-40.21131
465.129	-71.81209
465.339	-31.78348
465.55	-14.92664
465.76	16.68414
465.97	23.00695
466.18	-0.17561
466.391	-10.71218
466.601	1.93177
466.811	-33.89048
467.021	-23.35526
467.231	-19.141
467.441	-27.56942
467.651	12.46906
467.862	-38.10439
468.072	44.08449
468.282	-40.21131
468.492	-82.34441
468.702	-19.141
468.912	-21.24814
469.122	4.03918
469.332	54.62413
469.542	-6.49763
469.752	-84.4508
469.962	8.25407
470.172	-4.39031
470.382	-19.141
470.592	-23.35526
470.802	-33.89048
471.012	-14.92664
471.222	48.30027
471.432	-31.78348
471.642	-33.89048
471.852	56.73213
472.062	10.36155
472.272	-19.141
472.482	-2.28298
472.691	-71.81209
472.901	-21.24814
473.111	-69.70555
473.321	-33.89048
473.531	-44.42508
473.741	-27.56942
473.95	6.14661
474.16	16.68414
474.37	-69.70555
474.58	20.89932
474.79	-35.99745
474.999	-29.67646
475.209	1.93177
475.419	-2.28298
475.628	-40.21131
475.838	-52.8523
476.048	1.93177
476.258	4.03918
476.467	-40.21131
476.677	29.32996
476.886	14.57659
477.096	67.27246
477.306	12.46906
477.515	1.93177
477.725	12.46906
477.935	18.79172
478.144	27.22227
478.354	-84.4508
478.563	-31.78348
478.773	-69.70555
478.982	6.14661
479.192	27.22227
479.401	-21.24814
479.611	35.65319
479.82	-80.238
480.03	-50.74553
480.239	23.00695
480.449	-4.39031
480.658	-52.8523
480.868	1.93177
481.077	1.93177
481.287	18.79172
481.496	-33.89048
481.705	-17.03383
481.915	10.36155
482.124	29.32996
482.333	-29.67646
482.543	-27.56942
482.752	-27.56942
482.961	-6.49763
483.171	6.14661
483.38	14.57659
483.589	10.36155
483.799	23.00695
484.008	-44.42508
484.217	1.93177
484.426	-19.141
484.636	37.76098
484.845	-12.81942
485.054	41.97663
485.263	44.08449
485.472	-35.99745
485.682	-54.95905
485.891	-8.60492
486.1	20.89932
486.309	20.89932
486.518	-21.24814
486.727	12.46906
486.936	1.93177
487.146	79.92161
487.355	-29.67646
487.564	-44.42508
487.773	-12.81942
487.982	-21.24814
488.191	-10.71218
488.4	-2.28298
488.609	27.22227
488.818	14.57659
489.027	-57.06577
489.236	20.89932
489.445	-2.28298
489.654	-50.74553
489.863	-2.28298
490.072	10.36155
490.281	-31.78348
490.49	31.43768
490.698	-29.67646
490.907	-0.17561
491.116	12.46906
491.325	10.36155
491.534	33.54542
491.743	39.86879
491.952	-86.55716
492.16	10.36155
492.369	-23.35526
492.578	-103.40711
492.787	-48.63874
492.996	44.08449
493.204	-10.71218
493.413	18.79172
493.622	1.93177
493.831	-25.46235
494.039	41.97663
494.248	-23.35526
494.457	-19.141
494.665	-40.21131
494.874	-17.03383
495.083	-8.60492
495.291	60.94819
495.5	12.46906
495.709	-33.89048
495.917	-61.27913
496.126	-33.89048
496.335	-27.56942
496.543	29.32996
496.752	-10.71218
496.96	-44.42508
497.169	-46.53192
497.377	-6.49763
497.586	73.59693
497.794	10.36155
498.003	4.03918
498.211	-12.81942
498.42	14.57659
498.628	-4.39031
498.837	-21.24814
499.045	-12.81942
499.254	-23.35526
499.462	-10.71218
499.671	58.84015
499.879	-4.39031
500.087	37.76098
500.296	-38.10439
500.504	-67.59898
500.713	-14.92664
500.921	-61.27913
501.129	52.51615
501.338	-21.24814
501.546	16.68414
501.754	-19.141
501.962	-90.7698
502.171	-48.63874
502.379	-4.39031
502.587	60.94819
502.795	-6.49763
503.004	-6.49763
503.212	-101.30096
503.42	-38.10439
503.628	-107.61934
503.837	16.68414
504.045	6.14661
504.253	-99.19478
504.461	-14.92664
504.669	-52.8523
504.877	-31.78348
505.085	-46.53192
505.294	-52.8523
505.502	14.57659
505.71	29.32996
505.918	25.11459
506.126	1.93177
506.334	27.22227
506.542	-4.39031
506.75	-29.67646
506.958	-4.39031
507.166	-27.56942
507.374	-40.21131
507.582	-29.67646
507.79	-50.74553
507.998	-0.17561
508.206	-35.99745
508.414	-35.99745
508.622	-69.70555
508.83	16.68414
509.037	67.27246
509.245	-99.19478
509.453	-21.24814
509.661	-71.81209
509.869	-21.24814
510.077	-19.141
510.285	-27.56942
510.492	10.36155
510.7	-23.35526
510.908	-23.35526
511.116	-6.49763
511.324	20.89932
511.531	-73.91861
511.739	-69.70555
511.947	-40.21131
512.155	-78.13156
512.362	-73.91861
512.57	-23.35526
512.778	35.65319
512.985	-48.63874
513.193	10.36155
513.401	-40.21131
513.608	-4.39031
513.816	-54.95905
514.024	-19.141
514.231	12.46906
514.439	-80.238
514.646	29.32996
514.854	44.08449
515.061	18.79172
515.269	-23.35526
515.477	1.93177
515.684	10.36155
515.892	-14.92664
516.099	4.03918
516.307	-52.8523
516.514	14.57659
516.722	35.65319
516.929	-14.92664
517.136	48.30027
517.344	-6.49763
517.551	1.93177
517.759	-61.27913
517.966	8.25407
518.173	-38.10439
518.381	20.89932
518.588	117.87389
518.796	-14.92664
519.003	18.79172
519.21	-6.49763
519.418	-6.49763
519.625	-21.24814
519.832	-35.99745
520.039	12.46906
520.247	-35.99745
520.454	-52.8523
520.661	-40.21131
520.868	-19.141
521.076	-6.49763
521.283	-48.63874
521.49	-12.81942
521.697	-12.81942
521.904	-2.28298
522.112	-42.31821
522.319	16.68414
522.526	-25.46235
522.733	54.62413
522.94	-63.38577
523.147	-44.42508
523.354	-12.81942
523.561	8.25407
523.768	-65.49239
523.975	50.4082
524.183	-40.21131
524.39	-14.92664
524.597	-38.10439
524.804	4.03918
525.011	-97.08857
525.218	-63.38577
525.425	10.36155
525.632	-25.46235
525.838	-14.92664
526.045	-17.03383
526.252	1.93177
526.459	-10.71218
526.666	-17.03383
526.873	-73.91861
527.08	12.46906
527.287	-10.71218
527.494	-69.70555
527.701	-6.49763
527.907	-14.92664
528.114	-84.4508
528.321	31.43768
528.528	29.32996
528.735	-52.8523
528.941	-10.71218
529.148	39.86879
529.355	6.14661
529.562	1.93177
529.768	-21.24814
529.975	-50.74553
530.182	23.00695
530.388	-19.141
530.595	27.22227
530.802	-52.8523
531.008	-21.24814
531.215	10.36155
531.422	-19.141
531.628	18.79172
531.835	18.79172
532.042	-25.46235
532.248	-50.74553
532.455	29.32996
532.661	10.36155
532.868	-73.91861
533.074	4.03918
533.281	6.14661
533.487	-54.95905
533.694	29.32996
533.9	-31.78348
534.107	16.68414
534.313	-71.81209
534.52	-17.03383
534.726	-6.49763
534.933	1.93177
535.139	-57.06577
535.345	29.32996
535.552	1.93177
535.758	-17.03383
535.965	-71.81209
536.171	-27.56942
536.377	-38.10439
536.584	-2.28298
536.79	1.93177
536.996	-14.92664
537.203	6.14661
537.409	-69.70555
537.615	-48.63874
537.821	-23.35526
538.028	20.89932
538.234	-23.35526
538.44	-10.71218
538.646	-54.95905
538.853	-54.95905
539.059	-29.67646
539.265	18.79172
539.471	23.00695
539.677	-4.39031
539.883	12.46906
540.09	-71.81209
540.296	10.36155
540.502	-10.71218
540.708	-27.56942
540.914	-23.35526
541.12	12.46906
541.326	-109.72541
541.532	27.22227
541.738	10.36155
541.944	-14.92664
542.15	-4.39031
542.356	20.89932
542.562	-52.8523
542.768	-59.17246
542.974	-29.67646
543.18	-19.141
543.386	10.36155
543.592	-40.21131
543.798	14.57659
544.004	35.65319
544.21	-31.78348
544.415	-29.67646
544.621	-17.03383
544.827	18.79172
545.033	37.76098
545.239	-59.17246
545.445	-57.06577
545.651	-57.06577
545.856	8.25407
546.062	-6.49763
546.268	-19.141
546.474	-12.81942
546.679	-65.49239
546.885	4.03918
547.091	-54.95905
547.297	1.93177
547.502	-19.141
547.708	-76.0251
547.914	-59.17246
548.119	48.30027
548.325	-54.95905
548.531	50.4082
548.736	39.86879
548.942	37.76098
549.147	-149.73574
549.353	4.03918
549.559	-29.67646
549.764	18.79172
549.97	-69.70555
550.175	-40.21131
550.381	79.92161
550.586	60.94819
550.792	65.16435
550.997	4.03918
551.203	60.94819
551.408	-35.99745
551.614	37.76098
551.819	-12.81942
552.025	18.79172
552.23	20.89932
552.435	-29.67646
552.641	-61.27913
552.846	20.89932
553.052	4.03918
553.257	-46.53192
553.462	14.57659
553.668	10.36155
553.873	-8.60492
554.078	1.93177
554.283	-42.31821
554.489	1.93177
554.694	-33.89048
554.899	14.57659
555.105	52.51615
555.31	-57.06577
555.515	-12.81942
555.72	52.51615
555.925	-27.56942
556.131	-10.71218
556.336	1.93177
556.541	27.22227
556.746	6.14661
556.951	31.43768
557.156	14.57659
557.361	44.08449
557.567	-19.141
557.772	-35.99745
557.977	-29.67646
558.182	-78.13156
558.387	23.00695
558.592	-4.39031
558.797	23.00695
559.002	-14.92664
559.207	-23.35526
559.412	-57.06577
559.617	14.57659
559.822	-19.141
560.027	1.93177
560.232	29.32996
560.437	-23.35526
560.642	-4.39031
560.847	-50.74553
561.051	52.51615
561.256	-59.17246
561.461	-27.56942
561.666	-40.21131
561.871	12.46906
562.076	-27.56942
562.281	16.68414
562.485	27.22227
562.69	77.81336
562.895	-48.63874
563.1	-59.17246
563.305	-2.28298
563.509	-40.21131
563.714	-25.46235
563.919	-4.39031
564.123	18.79172
564.328	-27.56942
564.533	4.03918
564.737	20.89932
564.942	-4.39031
565.147	-19.141
565.351	52.51615
565.556	31.43768
565.761	1.93177
565.965	-48.63874
566.17	-33.89048
566.374	-31.78348
566.579	-23.35526
566.784	-40.21131
566.988	-48.63874
567.193	-29.67646
567.397	10.36155
567.602	-63.38577
567.806	-23.35526
568.011	14.57659
568.215	-65.49239
568.42	48.30027
568.624	18.79172
568.828	-0.17561
569.033	-14.92664
569.237	-17.03383
569.442	52.51615
569.646	31.43768
569.85	-19.141
570.055	35.65319
570.259	10.36155
570.463	25.11459
570.668	-14.92664
570.872	1.93177
571.076	-19.141
571.281	-61.27913
571.485	-2.28298
571.689	-2.28298
571.893	-48.63874
572.098	-12.81942
572.302	10.36155
572.506	-0.17561
572.71	-6.49763
572.914	-80.238
573.119	-40.21131
573.323	-40.21131
573.527	-29.67646
573.731	-33.89048
573.935	25.11459
574.139	56.73213
574.343	41.97663
574.547	84.13817
574.751	10.36155
574.955	23.00695
575.159	44.08449
575.364	23.00695
575.568	-12.81942
575.772	-14.92664
575.976	-23.35526
576.18	-42.31821
576.383	-19.141
576.587	-4.39031
576.791	14.57659
576.995	-40.21131
577.199	-46.53192
577.403	20.89932
577.607	-48.63874
577.811	10.36155
578.015	-27.56942
578.219	10.36155
578.422	-23.35526
578.626	16.68414
578.83	-8.60492
579.034	-44.42508
579.238	10.36155
579.442	-50.74553
579.645	-2.28298
579.849	-40.21131
580.053	1.93177
580.257	-57.06577
580.46	-17.03383
580.664	-48.63874
580.868	-10.71218
581.071	-38.10439
581.275	44.08449
581.479	-10.71218
581.682	-25.46235
581.886	-6.49763
582.09	-61.27913
582.293	-65.49239
582.497	77.81336
582.7	10.36155
582.904	-46.53192
583.107	18.79172
583.311	-84.4508
583.515	33.54542
583.718	4.03918
583.922	6.14661
584.125	-23.35526
584.329	18.79172
584.532	-61.27913
584.735	-25.46235
584.939	14.57659
585.142	-61.27913
585.346	-29.67646
585.549	16.68414
585.753	37.76098
585.956	-69.70555
586.159	-4.39031
586.363	-40.21131
586.566	1.93177
586.769	-4.39031
586.973	-35.99745
587.176	-0.17561
587.379	16.68414
587.582	-27.56942
587.786	-57.06577
587.989	-31.78348
588.192	31.43768
588.395	-38.10439
588.599	-19.141
588.802	-44.42508
589.005	10.36155
589.208	50.4082
589.411	-2.28298
589.615	29.32996
589.818	-8.60492
590.021	-65.49239
590.224	-14.92664
590.427	-6.49763
590.63	1.93177
590.833	-33.89048
591.036	-0.17561
591.239	-63.38577
591.442	-31.78348
591.645	-17.03383
591.848	69.38059
592.051	-14.92664
592.254	44.08449
592.457	65.16435
592.66	-57.06577
592.863	37.76098
593.066	-116.04347
593.269	10.36155
593.472	-65.49239
593.675	-35.99745
593.878	-2.28298
594.081	10.36155
594.284	-31.78348
594.486	-19.141
594.689	-61.27913
594.892	10.36155
595.095	-6.49763
595.298	-88.66349
595.5	-2.28298
595.703	-14.92664
595.906	29.32996
596.109	-6.49763
596.311	14.57659
596.514	-10.71218
596.717	-29.67646
596.92	-6.49763
597.122	-2.28298
597.325	-29.67646
597.528	-44.42508
597.73	10.36155
597.933	-44.42508
598.136	-29.67646
598.338	-69.70555
598.541	-35.99745
598.743	-10.71218
598.946	-23.35526
599.148	35.65319
599.351	18.79172
599.554	-0.17561
599.756	18.79172
599.959	39.86879
600.161	-2.28298
600.363	-69.70555
600.566	-71.81209
600.768	65.16435
600.971	54.62413
601.173	-97.08857
601.376	-6.49763
601.578	1.93177
601.78	-124.46718
601.983	-19.141
602.185	-19.141
602.388	-92.87609
602.59	-76.0251
602.792	-4.39031
602.995	-76.0251
603.197	-76.0251
603.399	33.54542
603.601	-10.71218
603.804	41.97663
604.006	-12.81942
604.208	6.14661
604.41	-46.53192
604.613	18.79172
604.815	1.93177
605.017	-54.95905
605.219	18.79172
605.421	-21.24814
605.623	-48.63874
605.826	18.79172
606.028	-25.46235
606.23	-23.35526
606.432	27.22227
606.634	1.93177
606.836	8.25407
607.038	-44.42508
607.24	-57.06577
607.442	-6.49763
607.644	-29.67646
607.846	-40.21131
608.048	-42.31821
608.25	18.79172
608.452	-71.81209
608.654	-65.49239
608.856	-8.60492
609.058	18.79172
609.26	-38.10439
609.462	-61.27913
609.664	-90.7698
609.866	-2.28298
610.067	-40.21131
610.269	14.57659
610.471	50.4082
610.673	-31.78348
610.875	-40.21131
611.077	-25.46235
611.278	69.38059
611.48	6.14661
611.682	-46.53192
611.884	27.22227
612.085	-52.8523
612.287	-31.78348
612.489	18.79172
612.69	-48.63874
612.892	63.05626
613.094	25.11459
613.295	6.14661
613.497	-17.03383
613.699	12.46906
613.9	10.36155
614.102	-40.21131
614.304	-48.63874
614.505	-29.67646
614.707	-31.78348
614.908	18.79172
615.11	48.30027
615.311	6.14661
615.513	-65.49239
615.714	-12.81942
615.916	-6.49763
616.117	6.14661
616.319	18.79172
616.52	1.93177
616.722	-10.71218
616.923	-35.99745
617.124	-23.35526
617.326	-42.31821
617.527	-12.81942
617.729	73.59693
617.93	-19.141
618.131	18.79172
618.333	79.92161
618.534	-23.35526
618.735	-8.60492
618.937	60.94819
619.138	-46.53192
619.339	82.02988
619.54	14.57659
619.742	6.14661
619.943	50.4082
620.144	-44.42508
620.345	-31.78348
620.546	-8.60492
620.748	60.94819
620.949	-40.21131
621.15	-44.42508
621.351	4.03918
621.552	39.86879
621.753	-6.49763
621.954	6.14661
622.155	31.43768
622.356	-14.92664
622.558	-4.39031
622.759	-61.27913
622.96	23.00695
623.161	27.22227
623.362	8.25407
623.563	90.46319
623.764	25.11459
623.965	-23.35526
624.166	-46.53192
624.366	-54.95905
624.567	-23.35526
624.768	16.68414
624.969	31.43768
625.17	-23.35526
625.371	-57.06577
625.572	77.81336
625.773	-2.28298
625.973	1.93177
626.174	1.93177
626.375	-54.95905
626.576	8.25407
626.777	-113.93748
626.977	-14.92664
627.178	-19.141
627.379	-38.10439
627.58	14.57659
627.78	-61.27913
627.981	-0.17561
628.182	-25.46235
628.382	-48.63874
628.583	-40.21131
628.784	-12.81942
628.984	73.59693
629.185	-21.24814
629.386	1.93177
629.586	-69.70555
629.787	1.93177
629.987	18.79172
630.188	-33.89048
630.388	-6.49763
630.589	-4.39031
630.79	-21.24814
630.99	-33.89048
631.191	71.48875
631.391	-61.27913
631.591	-82.34441
631.792	-54.95905
631.992	25.11459
632.193	-14.92664
632.393	-6.49763
632.594	-14.92664
632.794	-54.95905
632.994	10.36155
633.195	-21.24814
633.395	-84.4508
633.595	14.57659
633.796	-61.27913
633.996	18.79172
634.196	37.76098
634.397	-69.70555
634.597	18.79172
634.797	-10.71218
634.997	-50.74553
635.198	-29.67646
635.398	-57.06577
635.598	-44.42508
635.798	-6.49763
635.998	-50.74553
636.199	-50.74553
636.399	35.65319
636.599	-99.19478
636.799	-82.34441
636.999	-35.99745
637.199	6.14661
637.399	-35.99745
637.599	-27.56942
637.799	-52.8523
637.999	23.00695
638.199	-61.27913
638.399	-8.60492
638.599	58.84015
638.799	-23.35526
638.999	-59.17246
639.199	-27.56942
639.399	-82.34441
639.599	-2.28298
639.799	-6.49763
639.999	-76.0251
640.199	-54.95905
640.399	-46.53192
640.599	-42.31821
640.799	-63.38577
640.998	-14.92664
641.198	-25.46235
641.398	27.22227
641.598	-52.8523
641.798	-40.21131
641.997	-29.67646
642.197	-0.17561
642.397	-35.99745
642.597	-52.8523
642.796	-23.35526
642.996	14.57659
643.196	37.76098
643.395	14.57659
643.595	52.51615
643.795	33.54542
643.994	-23.35526
644.194	-78.13156
644.394	-0.17561
644.593	-14.92664
644.793	-40.21131
644.992	-17.03383
645.192	-38.10439
645.392	27.22227
645.591	18.79172
645.791	16.68414
645.99	-48.63874
646.19	39.86879
646.389	-19.141
646.589	-19.141
646.788	-59.17246
646.987	-61.27913
647.187	39.86879
647.386	10.36155
647.586	4.03918
647.785	10.36155
647.984	-38.10439
648.184	35.65319
648.383	-38.10439
648.582	27.22227
648.782	41.97663
648.981	-0.17561
649.18	-14.92664
649.38	-6.49763
649.579	-31.78348
649.778	-27.56942
649.977	37.76098
650.177	-14.92664
650.376	-21.24814
650.575	-38.10439
650.774	-40.21131
650.973	-65.49239
651.173	56.73213
651.372	-31.78348
651.571	-42.31821
651.77	-14.92664
651.969	1.93177
652.168	-14.92664
652.367	-124.46718
652.566	-23.35526
652.765	-14.92664
652.964	-12.81942
653.163	-31.78348
653.362	-46.53192
653.561	-14.92664
653.76	12.46906
653.959	-12.81942
654.158	50.4082
654.357	29.32996
654.556	-46.53192
654.755	1.93177
654.954	-21.24814
655.153	-10.71218
655.352	-12.81942
655.551	4.03918
655.749	-57.06577
655.948	8.25407
656.147	4.03918
656.346	-33.89048
656.545	-61.27913
656.743	73.59693
656.942	-40.21131
657.141	10.36155
657.34	6.14661
657.538	-12.81942
657.737	27.22227
657.936	-19.141
658.135	-38.10439
658.333	-84.4508
658.532	29.32996
658.731	-10.71218
658.929	-69.70555
659.128	-4.39031
659.326	27.22227
659.525	8.25407
659.724	-23.35526
659.922	-2.28298
660.121	-31.78348
660.319	18.79172
660.518	-17.03383
660.716	-57.06577
660.915	-71.81209
661.113	-4.39031
661.312	-82.34441
661.51	-38.10439
661.709	31.43768
661.907	-38.10439
662.105	-10.71218
662.304	-17.03383
662.502	-29.67646
662.701	41.97663
662.899	-65.49239
663.097	-6.49763
663.296	14.57659
663.494	54.62413
663.692	-40.21131
663.891	-35.99745
664.089	-57.06577
664.287	-19.141
664.485	65.16435
664.684	-40.21131
664.882	-25.46235
665.08	-2.28298
665.278	-19.141
665.476	-31.78348
665.675	-38.10439
665.873	-21.24814
666.071	-73.91861
666.269	52.51615
666.467	-61.27913
666.665	-42.31821
666.863	-46.53192
667.061	-10.71218
667.259	25.11459
667.457	-0.17561
667.655	16.68414
667.853	-57.06577
668.051	-80.238
668.249	-44.42508
668.447	31.43768
668.645	-10.71218
668.843	-23.35526
669.041	-69.70555
669.239	18.79172
669.437	-6.49763
669.635	37.76098
669.833	-52.8523
670.031	-54.95905
670.229	-69.70555
670.426	-52.8523
670.624	-31.78348
670.822	6.14661
671.02	39.86879
671.218	-59.17246
671.415	-44.42508
671.613	-23.35526
671.811	-97.08857
672.009	-21.24814
672.206	-90.7698
672.404	-21.24814
672.602	14.57659
672.799	27.22227
672.997	-65.49239
673.195	-21.24814
673.392	-40.21131
673.59	-21.24814
673.788	1.93177
673.985	18.79172
674.183	44.08449
674.38	-8.60492
674.578	8.25407
674.775	-27.56942
674.973	48.30027
675.17	-50.74553
675.368	-19.141
675.565	-38.10439
675.763	44.08449
675.96	-42.31821
676.158	-14.92664
676.355	14.57659
676.553	77.81336
676.75	-2.28298
676.947	12.46906
677.145	-8.60492
677.342	-40.21131
677.539	60.94819
677.737	-2.28298
677.934	-23.35526
678.131	60.94819
678.329	-46.53192
678.526	39.86879
678.723	77.81336
678.92	-17.03383
679.118	-40.21131
679.315	1.93177
679.512	-23.35526
679.709	-29.67646
679.906	-35.99745
680.104	10.36155
680.301	-14.92664
680.498	-27.56942
680.695	-50.74553
680.892	-35.99745
681.089	12.46906
681.286	-6.49763
681.483	-65.49239
681.68	-14.92664
681.877	96.7884
682.075	1.93177
682.272	-35.99745
682.469	-6.49763
682.665	-35.99745
682.862	-67.59898
683.059	69.38059
683.256	-42.31821
683.453	20.89932
683.65	-6.49763
683.847	54.62413
684.044	-90.7698
684.241	-35.99745
684.438	-31.78348
684.635	-40.21131
684.831	-23.35526
685.028	18.79172
685.225	10.36155
685.422	46.19237
685.619	29.32996
685.815	-23.35526
686.012	-8.60492
686.209	-12.81942
686.405	-6.49763
686.602	27.22227
686.799	-71.81209
686.996	18.79172
687.192	8.25407
687.389	-61.27913
687.586	73.59693
687.782	-4.39031
687.979	35.65319
688.175	6.14661
688.372	-69.70555
688.568	-23.35526
688.765	18.79172
688.962	14.57659
689.158	18.79172
689.355	10.36155
689.551	-33.89048
689.748	48.30027
689.944	-46.53192
690.14	44.08449
690.337	-2.28298
690.533	-23.35526
690.73	1.93177
690.926	-57.06577
691.123	-12.81942
691.319	-57.06577
691.515	-21.24814
691.712	-17.03383
691.908	-2.28298
692.104	-40.21131
692.301	-57.06577
692.497	-54.95905
692.693	10.36155
692.889	4.03918
693.086	-35.99745
693.282	-69.70555
693.478	12.46906
693.674	29.32996
693.87	-8.60492
694.067	-10.71218
694.263	10.36155
694.459	23.00695
694.655	-59.17246
694.851	25.11459
695.047	-54.95905
695.243	-6.49763
695.439	-31.78348
695.635	-19.141
695.831	44.08449
696.027	16.68414
696.224	-44.42508
696.42	-73.91861
696.615	54.62413
696.811	52.51615
697.007	37.76098
697.203	-19.141
697.399	-52.8523
697.595	-44.42508
697.791	-21.24814
697.987	-57.06577
698.183	39.86879
698.379	-63.38577
698.575	-6.49763
698.77	-27.56942
698.966	-80.238
699.162	-57.06577
699.358	29.32996
699.554	-21.24814
699.749	14.57659
699.945	-29.67646
700.141	46.19237
700.337	10.36155
700.532	31.43768
700.728	1.93177
700.924	-6.49763
701.119	35.65319
701.315	-48.63874
701.511	-44.42508
701.706	33.54542
701.902	12.46906
702.097	14.57659
702.293	-71.81209
702.489	-69.70555
702.684	-14.92664
702.88	-46.53192
703.075	-61.27913
703.271	-31.78348
703.466	1.93177
703.662	54.62413
703.857	-14.92664
704.053	-2.28298
704.248	-44.42508
704.443	-46.53192
704.639	-59.17246
704.834	29.32996
705.03	60.94819
705.225	-90.7698
705.42	6.14661
705.616	52.51615
705.811	-46.53192
706.006	1.93177
706.202	14.57659
706.397	-19.141
706.592	31.43768
706.787	-14.92664
706.983	39.86879
707.178	-52.8523
707.373	-4.39031
707.568	-25.46235
707.763	-48.63874
707.959	-40.21131
708.154	-59.17246
708.349	-42.31821
708.544	-0.17561
708.739	44.08449
708.934	18.79172
709.129	-17.03383
709.324	-29.67646
709.519	-52.8523
709.714	50.4082
709.909	-40.21131
710.104	1.93177
710.299	-40.21131
710.494	-31.78348
710.689	52.51615
710.884	-14.92664
711.079	8.25407
711.274	1.93177
711.469	35.65319
711.664	-63.38577
711.859	-52.8523
712.054	6.14661
712.249	-17.03383
712.443	-21.24814
712.638	-76.0251
712.833	-2.28298
713.028	-14.92664
713.223	88.35483
713.417	41.97663
713.612	18.79172
713.807	10.36155
714.002	-25.46235
714.196	20.89932
714.391	-25.46235
714.586	-21.24814
714.78	-48.63874
714.975	-6.49763
715.17	-76.0251
715.364	-14.92664
715.559	-29.67646
715.754	-80.238
715.948	-14.92664
716.143	-14.92664
716.337	-10.71218
716.532	60.94819
716.726	-10.71218
716.921	-31.78348
717.115	27.22227
717.31	-23.35526
717.504	-44.42508
717.699	-21.24814
717.893	20.89932
718.088	-57.06577
718.282	-31.78348
718.476	10.36155
718.671	-35.99745
718.865	107.33087
719.059	20.89932
719.254	37.76098
719.448	-12.81942
719.642	94.67998
719.837	25.11459
720.031	-25.46235
720.225	-14.92664
720.419	-31.78348
720.614	44.08449
720.808	14.57659
721.002	-82.34441
721.196	-6.49763
721.39	14.57659
721.585	-19.141
721.779	20.89932
721.973	56.73213
722.167	12.46906
722.361	-4.39031
722.555	4.03918
722.749	-10.71218
722.943	20.89932
723.137	31.43768
723.331	14.57659
723.525	6.14661
723.719	-38.10439
723.913	-80.238
724.107	-2.28298
724.301	35.65319
724.495	-12.81942
724.689	8.25407
724.883	44.08449
725.077	-63.38577
725.271	-27.56942
725.465	56.73213
725.659	18.79172
725.853	-2.28298
726.046	-35.99745
726.24	-8.60492
726.434	37.76098
726.628	-23.35526
726.822	-4.39031
727.015	-25.46235
727.209	-2.28298
727.403	-21.24814
727.596	39.86879
727.79	44.08449
727.984	-23.35526
728.177	46.19237
728.371	10.36155
728.565	6.14661
728.758	18.79172
728.952	-0.17561
729.146	1.93177
729.339	-19.141
729.533	-50.74553
729.726	63.05626
729.92	-35.99745
730.113	-6.49763
730.307	1.93177
730.5	-27.56942
730.694	1.93177
730.887	65.16435
731.081	-14.92664
731.274	-31.78348
731.468	12.46906
731.661	-25.46235
731.854	29.32996
732.048	-63.38577
732.241	41.97663
732.435	6.14661
732.628	-2.28298
732.821	-27.56942
733.014	-10.71218
733.208	-19.141
733.401	-40.21131
733.594	-19.141
733.788	39.86879
733.981	-4.39031
734.174	-0.17561
734.367	-2.28298
734.56	-57.06577
734.754	-27.56942
734.947	-14.92664
735.14	16.68414
735.333	44.08449
735.526	44.08449
735.719	-29.67646
735.912	12.46906
736.105	-63.38577
736.298	-94.98234
736.491	-107.61934
736.684	-8.60492
736.877	-82.34441
737.07	44.08449
737.263	-6.49763
737.456	-23.35526
737.649	-31.78348
737.842	39.86879
738.035	88.35483
738.228	-54.95905
738.421	14.57659
738.614	1.93177
738.807	-23.35526
739	16.68414
739.192	12.46906
739.385	16.68414
739.578	-90.7698
739.771	71.48875
739.964	-23.35526
740.156	-19.141
740.349	-21.24814
740.542	-19.141
740.735	-21.24814
740.927	-12.81942
741.12	52.51615
741.313	-6.49763
741.505	-19.141
741.698	-27.56942
741.891	-50.74553
742.083	107.33087
742.276	-14.92664
742.468	48.30027
742.661	-12.81942
742.854	-35.99745
743.046	-35.99745
743.239	-40.21131
743.431	-40.21131
743.624	1.93177
743.816	39.86879
744.009	-61.27913
744.201	67.27246
744.393	-52.8523
744.586	1.93177
744.778	29.32996
744.971	14.57659
745.163	-0.17561
745.355	-21.24814
745.548	-14.92664
745.74	12.46906
745.932	-38.10439
746.125	60.94819
746.317	31.43768
746.509	-40.21131
746.702	8.25407
746.894	-35.99745
747.086	-14.92664
747.278	44.08449
747.471	69.38059
747.663	6.14661
747.855	-94.98234
748.047	23.00695
748.239	-31.78348
748.431	-46.53192
748.623	-54.95905
748.815	-35.99745
749.008	31.43768
749.2	20.89932
749.392	52.51615
749.584	14.57659
749.776	-52.8523
749.968	-10.71218
750.16	-86.55716
750.352	20.89932
750.544	-10.71218
750.736	-107.61934
750.928	-10.71218
751.12	-29.67646
751.311	-8.60492
751.503	10.36155
751.695	-6.49763
751.887	-73.91861
752.079	16.68414
752.271	-10.71218
752.463	-57.06577
752.654	-50.74553
752.846	-107.61934
753.038	-6.49763
753.23	-50.74553
753.421	29.32996
753.613	1.93177
753.805	14.57659
753.997	-14.92664
754.188	65.16435
754.38	-19.141
754.572	-23.35526
754.763	-17.03383
754.955	52.51615
755.146	-29.67646
755.338	25.11459
755.53	27.22227
755.721	1.93177
755.913	-61.27913
756.104	-23.35526
756.296	-8.60492
756.487	-17.03383
756.679	52.51615
756.87	63.05626
757.062	10.36155
757.253	27.22227
757.445	-52.8523
757.636	77.81336
757.827	18.79172
758.019	-23.35526
758.21	14.57659
758.401	29.32996
758.593	-84.4508
758.784	8.25407
758.975	31.43768
759.167	52.51615
759.358	-48.63874
759.549	-57.06577
759.74	12.46906
759.932	-65.49239
760.123	-2.28298
760.314	20.89932
760.505	-12.81942
760.696	-57.06577
760.888	-6.49763
761.079	37.76098
761.27	-21.24814
761.461	25.11459
761.652	-23.35526
761.843	1.93177
762.034	-17.03383
762.225	10.36155
762.416	48.30027
762.607	23.00695
762.798	-35.99745
762.989	6.14661
763.18	-57.06577
763.371	23.00695
763.562	-31.78348
763.753	-31.78348
763.944	4.03918
764.135	27.22227
764.326	16.68414
764.517	6.14661
764.708	-10.71218
764.899	1.93177
765.089	12.46906
765.28	-48.63874
765.471	-31.78348
765.662	109.43943
765.853	-29.67646
766.043	-17.03383
766.234	-31.78348
766.425	-69.70555
766.615	-4.39031
766.806	-10.71218
766.997	-0.17561
767.187	-6.49763
767.378	-31.78348
767.569	-4.39031
767.759	6.14661
767.95	39.86879
768.141	-2.28298
768.331	6.14661
768.522	-67.59898
768.712	-4.39031
768.903	-40.21131
769.093	-38.10439
769.284	-52.8523
769.474	-12.81942
769.665	-0.17561
769.855	6.14661
770.046	-14.92664
770.236	20.89932
770.426	12.46906
770.617	18.79172
770.807	-27.56942
770.998	-29.67646
771.188	-38.10439
771.378	-35.99745
771.569	-10.71218
771.759	-76.0251
771.949	-31.78348
772.139	-27.56942
772.33	1.93177
772.52	-14.92664
772.71	-14.92664
772.9	20.89932
773.09	-25.46235
773.281	1.93177
773.471	-2.28298
773.661	-40.21131
773.851	-48.63874
774.041	69.38059
774.231	-0.17561
774.421	-40.21131
774.611	73.59693
774.802	-12.81942
774.992	25.11459
775.182	4.03918
775.372	18.79172
775.562	18.79172
775.752	-4.39031
775.942	58.84015
776.131	48.30027
776.321	-14.92664
776.511	-42.31821
776.701	-19.141
776.891	46.19237
777.081	14.57659
777.271	-19.141
777.461	4.03918
777.651	-31.78348
777.84	10.36155
778.03	18.79172
778.22	-12.81942
778.41	-65.49239
778.599	1.93177
778.789	-6.49763
778.979	10.36155
779.169	-4.39031
779.358	35.65319
779.548	20.89932
779.738	-31.78348
779.927	-35.99745
780.117	-2.28298
780.307	-46.53192
780.496	-40.21131
780.686	-48.63874
780.875	-48.63874
781.065	27.22227
781.254	-65.49239
781.444	-35.99745
781.633	14.57659
781.823	18.79172
782.012	-12.81942
782.202	27.22227
782.391	-0.17561
782.581	1.93177
782.77	-65.49239
782.96	-65.49239
783.149	-6.49763
783.338	-42.31821
783.528	-54.95905
783.717	-69.70555
783.906	-14.92664
784.096	-6.49763
784.285	8.25407
784.474	-6.49763
784.663	-23.35526
784.853	-46.53192
785.042	35.65319
785.231	1.93177
785.42	-12.81942
785.61	-40.21131
785.799	48.30027
785.988	-42.31821
786.177	-57.06577
786.366	-33.89048
786.555	-2.28298
786.744	1.93177
786.933	-10.71218
787.122	31.43768
787.312	-23.35526
787.501	-46.53192
787.69	-35.99745
787.879	-48.63874
788.068	-48.63874
788.257	-14.92664
788.445	-14.92664
788.634	18.79172
788.823	-6.49763
789.012	-50.74553
789.201	4.03918
789.39	16.68414
789.579	29.32996
789.768	-38.10439
789.957	-2.28298
790.145	12.46906
790.334	33.54542
790.523	-44.42508
790.712	-50.74553
790.9	-46.53192
791.089	-48.63874
791.278	-21.24814
791.467	16.68414
791.655	-107.61934
791.844	-0.17561
792.033	-33.89048
792.221	-69.70555
792.41	-69.70555
792.599	1.93177
792.787	8.25407
792.976	-21.24814
793.164	-0.17561
793.353	75.70514
793.541	29.32996
793.73	-33.89048
793.918	69.38059
794.107	29.32996
794.295	29.32996
794.484	-21.24814
794.672	-38.10439
794.861	69.38059
795.049	16.68414
795.238	1.93177
795.426	27.22227
795.614	-35.99745
795.803	-80.238
795.991	-19.141
796.179	12.46906
796.368	-6.49763
796.556	-31.78348
796.744	1.93177
796.932	1.93177
797.121	8.25407
797.309	-23.35526
797.497	10.36155
797.685	-63.38577
797.874	4.03918
798.062	-31.78348
798.25	44.08449
798.438	-27.56942
798.626	-4.39031
798.814	-12.81942
799.002	14.57659
799.19	12.46906
799.378	-23.35526
799.566	10.36155
799.755	31.43768
799.943	-6.49763
800.131	16.68414
800.318	25.11459
800.506	-54.95905
800.694	-23.35526
800.882	18.79172
801.07	-8.60492
801.258	-31.78348
801.446	10.36155
801.634	-23.35526
801.822	14.57659
802.01	-35.99745
802.197	39.86879
802.385	-29.67646
802.573	-48.63874
802.761	33.54542
802.949	44.08449
803.136	-4.39031
803.324	-0.17561
803.512	-19.141
803.699	-65.49239
803.887	-14.92664
804.075	31.43768
804.262	48.30027
804.45	-44.42508
804.638	6.14661
804.825	-78.13156
805.013	-25.46235
805.201	-38.10439
805.388	-10.71218
805.576	1.93177
805.763	58.84015
805.951	-17.03383
806.138	-27.56942
806.326	-6.49763
806.513	-141.31332
806.701	-78.13156
806.888	8.25407
807.075	10.36155
807.263	48.30027
807.45	-31.78348
807.638	20.89932
807.825	-14.92664
808.012	-4.39031
808.2	-10.71218
808.387	44.08449
808.574	23.00695
808.761	-48.63874
808.949	20.89932
809.136	-25.46235
809.323	-12.81942
809.51	4.03918
809.698	16.68414
809.885	-6.49763
810.072	-23.35526
810.259	10.36155
810.446	-40.21131
810.633	-6.49763
810.82	6.14661
811.008	-44.42508
811.195	-2.28298
811.382	-31.78348
811.569	-6.49763
811.756	-54.95905
811.943	-67.59898
812.13	23.00695
812.317	-35.99745
812.504	18.79172
812.691	12.46906
812.878	1.93177
813.064	-12.81942
813.251	-80.238
813.438	16.68414
813.625	-12.81942
813.812	-8.60492
813.999	-23.35526
814.186	-14.92664
814.372	10.36155
814.559	65.16435
814.746	-8.60492
814.933	-82.34441
815.12	18.79172
815.306	1.93177
815.493	84.13817
815.68	-12.81942
815.866	-31.78348
816.053	-0.17561
816.24	14.57659
816.426	-23.35526
816.613	39.86879
816.799	8.25407
816.986	46.19237
817.173	1.93177
817.359	48.30027
817.546	50.4082
817.732	-40.21131
817.919	23.00695
818.105	39.86879
818.292	6.14661
818.478	-12.81942
818.665	-21.24814
818.851	31.43768
819.037	-38.10439
819.224	90.46319
819.41	6.14661
819.597	-10.71218
819.783	-10.71218
819.969	-12.81942
820.156	-76.0251
820.342	-82.34441
820.528	29.32996
820.714	31.43768
820.901	35.65319
821.087	10.36155
821.273	-4.39031
821.459	6.14661
821.646	-19.141
821.832	39.86879
822.018	-35.99745
822.204	-48.63874
822.39	44.08449
822.576	12.46906
822.762	-19.141
822.948	-38.10439
823.134	29.32996
823.32	-128.67888
823.507	-10.71218
823.693	82.02988
823.879	52.51615
824.065	-14.92664
824.25	-10.71218
824.436	4.03918
824.622	8.25407
824.808	-14.92664
824.994	46.19237
825.18	-29.67646
825.366	12.46906
825.552	39.86879
825.738	-48.63874
825.923	-6.49763
826.109	23.00695
826.295	-99.19478
826.481	37.76098
826.667	10.36155
826.852	-78.13156
827.038	14.57659
827.224	48.30027
827.409	25.11459
827.595	1.93177
827.781	-21.24814
827.966	-0.17561
828.152	-48.63874
828.338	10.36155
828.523	-48.63874
828.709	-57.06577
828.894	18.79172
829.08	-31.78348
829.266	-6.49763
829.451	-6.49763
829.637	-12.81942
829.822	-2.28298
830.008	-8.60492
830.193	46.19237
830.378	27.22227
830.564	-23.35526
830.749	-59.17246
830.935	-59.17246
831.12	1.93177
831.305	-48.63874
831.491	-48.63874
831.676	-57.06577
831.861	-27.56942
832.047	-14.92664
832.232	-57.06577
832.417	-54.95905
832.602	-6.49763
832.788	-31.78348
832.973	-12.81942
833.158	8.25407
833.343	77.81336
833.528	69.38059
833.714	-2.28298
833.899	8.25407
834.084	-17.03383
834.269	-35.99745
834.454	-31.78348
834.639	-6.49763
834.824	-35.99745
835.009	-10.71218
835.194	8.25407
835.379	-14.92664
835.564	14.57659
835.749	-25.46235
835.934	6.14661
836.119	-4.39031
836.304	-31.78348
836.489	1.93177
836.674	4.03918
836.859	29.32996
837.044	27.22227
837.228	-31.78348
837.413	-21.24814
837.598	-21.24814
837.783	-48.63874
837.968	-21.24814
838.152	-19.141
838.337	4.03918
838.522	33.54542
838.707	-19.141
838.891	46.19237
839.076	-4.39031
839.261	-27.56942
839.445	-8.60492
839.63	41.97663
839.815	-14.92664
839.999	-10.71218
840.184	-4.39031
840.368	-44.42508
840.553	-19.141
840.737	65.16435
840.922	27.22227
841.106	-19.141
841.291	-38.10439
841.475	-14.92664
841.66	37.76098
841.844	16.68414
842.029	-0.17561
842.213	-12.81942
842.397	-44.42508
842.582	16.68414
842.766	1.93177
842.951	-57.06577
843.135	-111.83146
843.319	-52.8523
843.504	-48.63874
843.688	-23.35526
843.872	-94.98234
844.056	-10.71218
844.241	-14.92664
844.425	12.46906
844.609	-38.10439
844.793	8.25407
844.977	-23.35526
845.161	-2.28298
845.346	-46.53192
845.53	48.30027
845.714	39.86879
845.898	-69.70555
846.082	-27.56942
846.266	60.94819
846.45	14.57659
846.634	20.89932
846.818	-6.49763
847.002	77.81336
847.186	12.46906
847.37	-25.46235
847.554	-27.56942
847.738	-52.8523
847.922	-10.71218
848.106	-8.60492
848.29	-29.67646
848.473	-4.39031
848.657	-2.28298
848.841	-6.49763
849.025	44.08449
849.209	-40.21131
849.392	-40.21131
849.576	164.26954
849.76	31.43768
849.944	41.97663
850.127	1.93177
850.311	-29.67646
850.495	18.79172
850.678	-12.81942
850.862	-54.95905
851.046	-65.49239
851.229	33.54542
851.413	16.68414
851.596	-6.49763
851.78	50.4082
851.964	-78.13156
852.147	-63.38577
852.331	18.79172
852.514	25.11459
852.698	6.14661
852.881	35.65319
853.065	-67.59898
853.248	-48.63874
853.431	4.03918
853.615	10.36155
853.798	-44.42508
853.982	46.19237
854.165	-12.81942
854.348	-40.21131
854.532	-57.06577
854.715	-19.141
854.898	-17.03383
855.081	31.43768
855.265	-31.78348
855.448	60.94819
855.631	12.46906
855.814	4.03918
855.997	-61.27913
856.181	14.57659
856.364	-23.35526
856.547	-40.21131
856.73	-38.10439
856.913	-48.63874
857.096	4.03918
857.279	-25.46235
857.462	-78.13156
857.645	29.32996
857.828	6.14661
858.011	-23.35526
858.194	39.86879
858.377	-40.21131
858.56	-29.67646
858.743	4.03918
858.926	-10.71218
859.109	31.43768
859.292	-25.46235
859.475	39.86879
859.658	-27.56942
859.841	4.03918
860.023	27.22227
860.206	-27.56942
860.389	-31.78348
860.572	-23.35526
860.755	-48.63874
860.937	1.93177
861.12	-94.98234
861.303	-14.92664
861.486	-10.71218
861.668	-44.42508
861.851	-61.27913
862.034	1.93177
862.216	-4.39031
862.399	10.36155
862.581	-31.78348
862.764	-38.10439
862.947	-25.46235
863.129	-0.17561
863.312	-10.71218
863.494	16.68414
863.677	14.57659
863.859	39.86879
864.042	-31.78348
864.224	-38.10439
864.406	-99.19478
864.589	20.89932
864.771	-38.10439
864.954	-23.35526
865.136	-50.74553
865.318	-4.39031
865.501	1.93177
865.683	-4.39031
865.865	-14.92664
866.048	-6.49763
866.23	10.36155
866.412	-25.46235
866.594	18.79172
866.777	-27.56942
866.959	-38.10439
867.141	4.03918
867.323	-4.39031
867.505	46.19237
867.687	-35.99745
867.869	69.38059
868.052	31.43768
868.234	-42.31821
868.416	18.79172
868.598	20.89932
868.78	35.65319
868.962	-25.46235
869.144	-38.10439
869.326	65.16435
869.508	4.03918
869.69	16.68414
869.872	18.79172
870.054	8.25407
870.236	-19.141
870.417	31.43768
870.599	-48.63874
870.781	-31.78348
870.963	27.22227
871.145	35.65319
871.327	-40.21131
871.508	31.43768
871.69	16.68414
871.872	-12.81942
872.054	27.22227
872.235	35.65319
872.417	-80.238
872.599	12.46906
872.78	-27.56942
872.962	-40.21131
873.144	-27.56942
873.325	-71.81209
873.507	37.76098
873.689	-80.238
873.87	-25.46235
874.052	-19.141
874.233	-65.49239
874.415	-6.49763
874.596	-44.42508
874.778	-69.70555
874.959	-6.49763
875.141	-65.49239
875.322	35.65319
875.503	12.46906
875.685	-4.39031
875.866	-73.91861
876.048	16.68414
876.229	29.32996
876.41	-61.27913
876.592	27.22227
876.773	-57.06577
876.954	1.93177
877.136	-12.81942
877.317	27.22227
877.498	-19.141
877.679	1.93177
877.86	18.79172
878.042	-14.92664
878.223	-38.10439
878.404	18.79172
878.585	-27.56942
878.766	-8.60492
878.947	27.22227
879.128	-35.99745
879.309	-10.71218
879.49	-44.42508
879.672	-63.38577
879.853	-21.24814
880.034	23.00695
880.215	-21.24814
880.396	10.36155
880.576	-80.238
880.757	31.43768
880.938	-6.49763
881.119	-54.95905
881.3	-12.81942
881.481	-40.21131
881.662	-57.06577
881.843	50.4082
882.023	-23.35526
882.204	50.4082
882.385	10.36155
882.566	-6.49763
882.747	-12.81942
882.927	6.14661
883.108	-38.10439
883.289	-10.71218
883.469	18.79172
883.65	37.76098
883.831	69.38059
884.011	-71.81209
884.192	79.92161
884.373	33.54542
884.553	4.03918
884.734	-42.31821
884.914	31.43768
885.095	-67.59898
885.275	44.08449
885.456	-73.91861
885.636	-65.49239
885.817	-31.78348
885.997	-14.92664
886.178	-78.13156
886.358	-31.78348
886.538	-33.89048
886.719	1.93177
886.899	31.43768
887.08	-14.92664
887.26	-23.35526
887.44	-21.24814
887.621	1.93177
887.801	-52.8523
887.981	29.32996
888.161	4.03918
888.342	-14.92664
888.522	-14.92664
888.702	20.89932
888.882	-35.99745
889.062	-6.49763
889.242	-44.42508
889.423	-50.74553
889.603	6.14661
889.783	-23.35526
889.963	54.62413
890.143	-48.63874
890.323	35.65319
890.503	10.36155
890.683	-31.78348
890.863	-120.25538
891.043	-19.141
891.223	-2.28298
891.403	35.65319
891.583	-10.71218
891.763	67.27246
891.943	-2.28298
892.122	35.65319
892.302	-31.78348
892.482	63.05626
892.662	-19.141
892.842	-29.67646
893.022	37.76098
893.201	-67.59898
893.381	-61.27913
893.561	20.89932
893.741	-65.49239
893.92	50.4082
894.1	-35.99745
894.28	1.93177
894.459	4.03918
894.639	16.68414
894.819	-54.95905
894.998	-52.8523
895.178	-113.93748
895.357	-86.55716
895.537	-27.56942
895.716	12.46906
895.896	-44.42508
896.075	-21.24814
896.255	-33.89048
896.434	-31.78348
896.614	-31.78348
896.793	18.79172
896.973	-31.78348
897.152	1.93177
897.331	73.59693
897.511	-6.49763
897.69	48.30027
897.87	-54.95905
898.049	-10.71218
898.228	44.08449
898.407	-23.35526
898.587	-31.78348
898.766	6.14661
898.945	4.03918
899.124	-2.28298
899.304	1.93177
899.483	-44.42508
899.662	-48.63874
899.841	-42.31821
900.02	-33.89048
900.199	60.94819
900.378	35.65319
900.557	-14.92664
900.737	-94.98234
900.916	-57.06577
901.095	-10.71218
901.274	-57.06577
901.453	20.89932
901.632	-92.87609
901.811	-23.35526
901.989	-33.89048
902.168	56.73213
902.347	-38.10439
902.526	-54.95905
902.705	-14.92664
902.884	-38.10439
903.063	-6.49763
903.242	18.79172
903.42	-33.89048
903.599	-17.03383
903.778	-29.67646
903.957	-44.42508
904.135	-86.55716
904.314	46.19237
904.493	-33.89048
904.672	35.65319
904.85	14.57659
905.029	-19.141
905.207	-73.91861
905.386	-35.99745
905.565	4.03918
905.743	-44.42508
905.922	16.68414
906.1	-2.28298
906.279	-44.42508
906.457	-21.24814
906.636	-17.03383
906.814	-10.71218
906.993	-65.49239
907.171	23.00695
907.35	-23.35526
907.528	23.00695
907.707	-23.35526
907.885	-33.89048
908.063	44.08449
908.242	-27.56942
908.42	-80.238
908.598	-8.60492
908.777	-21.24814
908.955	35.65319
909.133	-48.63874
909.311	-35.99745
909.49	-23.35526
909.668	67.27246
909.846	20.89932
910.024	-6.49763
910.202	-23.35526
910.38	-86.55716
910.559	-6.49763
910.737	27.22227
910.915	-57.06577
911.093	35.65319
911.271	-33.89048
911.449	-48.63874
911.627	-10.71218
911.805	-23.35526
911.983	-57.06577
912.161	10.36155
912.339	18.79172
912.517	-21.24814
912.695	-50.74553
912.872	14.57659
913.05	96.7884
913.228	-6.49763
913.406	-40.21131
913.584	14.57659
913.762	-46.53192
913.939	-44.42508
914.117	33.54542
914.295	-21.24814
914.473	29.32996
914.65	-42.31821
914.828	-73.91861
915.006	-46.53192
915.184	6.14661
915.361	18.79172
915.539	-44.42508
915.716	-10.71218
915.894	-17.03383
916.072	-35.99745
916.249	39.86879
916.427	18.79172
916.604	-23.35526
916.782	56.73213
916.959	-101.30096
917.137	-21.24814
917.314	-19.141
917.492	-35.99745
917.669	-78.13156
917.847	-6.49763
918.024	-14.92664
918.201	-35.99745
918.379	4.03918
918.556	-88.66349
918.733	16.68414
918.911	35.65319
919.088	-10.71218
919.265	-31.78348
919.442	1.93177
919.62	-4.39031
919.797	-76.0251
919.974	-4.39031
920.151	-4.39031
920.328	-48.63874
920.506	-57.06577
920.683	-38.10439
920.86	-14.92664
921.037	-6.49763
921.214	-63.38577
921.391	35.65319
921.568	6.14661
921.745	-19.141
921.922	-2.28298
922.099	122.09124
922.276	-14.92664
922.453	-27.56942
922.63	14.57659
922.807	37.76098
922.984	41.97663
923.161	-48.63874
923.338	33.54542
923.514	-0.17561
923.691	-4.39031
923.868	-40.21131
924.045	-14.92664
924.222	18.79172
924.399	86.24649
924.575	50.4082
924.752	-25.46235
924.929	10.36155
925.105	-46.53192
925.282	10.36155
925.459	-27.56942
925.635	-14.92664
925.812	12.46906
925.989	-42.31821
926.165	-38.10439
926.342	-44.42508
926.518	-12.81942
926.695	-48.63874
926.871	41.97663
927.048	-29.67646
927.224	-14.92664
927.401	25.11459
927.577	-50.74553
927.754	-82.34441
927.93	44.08449
928.107	-38.10439
928.283	-25.46235
928.459	-44.42508
928.636	-111.83146
928.812	10.36155
928.988	-14.92664
929.165	29.32996
929.341	-46.53192
929.517	-38.10439
929.693	-29.67646
929.87	16.68414
930.046	29.32996
930.222	1.93177
930.398	-57.06577
930.574	-118.14944
930.751	37.76098
930.927	-29.67646
931.103	-35.99745
931.279	-97.08857
931.455	63.05626
931.631	-31.78348
931.807	-19.141
931.983	-10.71218
932.159	-23.35526
932.335	-10.71218
932.511	14.57659
932.687	35.65319
932.863	46.19237
933.039	-10.71218
933.215	33.54542
933.391	-10.71218
933.566	18.79172
933.742	35.65319
933.918	-14.92664
934.094	12.46906
934.27	33.54542
934.445	-35.99745
934.621	37.76098
934.797	107.33087
934.973	-21.24814
935.148	-54.95905
935.324	-99.19478
935.5	23.00695
935.675	-6.49763
935.851	-6.49763
936.027	44.08449
936.202	35.65319
936.378	73.59693
936.553	-14.92664
936.729	-33.89048
936.904	1.93177
937.08	-40.21131
937.255	60.94819
937.431	10.36155
937.606	-4.39031
937.782	86.24649
937.957	-19.141
938.133	23.00695
938.308	-44.42508
938.483	1.93177
938.659	6.14661
938.834	-73.91861
939.009	14.57659
939.185	12.46906
939.36	46.19237
939.535	44.08449
939.71	-6.49763
939.886	54.62413
940.061	10.36155
940.236	-86.55716
940.411	-48.63874
940.586	-10.71218
940.761	-40.21131
940.937	29.32996
941.112	-2.28298
941.287	-25.46235
941.462	10.36155
941.637	48.30027
941.812	6.14661
941.987	-4.39031
942.162	-6.49763
942.337	-67.59898
942.512	-19.141
942.687	-27.56942
942.862	-6.49763
943.037	-21.24814
943.212	-31.78348
943.386	-14.92664
943.561	-31.78348
943.736	20.89932
943.911	18.79172
944.086	-40.21131
944.26	-25.46235
944.435	35.65319
944.61	-8.60492
944.785	-27.56942
944.959	-2.28298
945.134	52.51615
945.309	35.65319
945.483	-44.42508
945.658	-44.42508
945.833	-86.55716
946.007	-42.31821
946.182	-17.03383
946.357	-23.35526
946.531	-31.78348
946.706	12.46906
946.88	-107.61934
947.055	20.89932
947.229	-40.21131
947.404	23.00695
947.578	-23.35526
947.752	23.00695
947.927	94.67998
948.101	69.38059
948.276	27.22227
948.45	10.36155
948.624	-94.98234
948.799	-65.49239
948.973	-10.71218
949.147	-6.49763
949.321	-2.28298
949.496	-12.81942
949.67	-19.141
949.844	54.62413
950.018	-8.60492
950.193	-71.81209
950.367	56.73213
950.541	-2.28298
950.715	12.46906
950.889	39.86879
951.063	4.03918
951.237	18.79172
951.411	4.03918
951.585	-52.8523
951.759	23.00695
951.933	-57.06577
952.107	1.93177
952.281	1.93177
952.455	-33.89048
952.629	-12.81942
952.803	10.36155
952.977	-71.81209
953.151	-31.78348
953.325	37.76098
953.499	-27.56942
953.672	31.43768
953.846	-31.78348
954.02	-6.49763
954.194	-2.28298
954.368	-17.03383
954.541	-33.89048
954.715	1.93177
954.889	-40.21131
955.062	1.93177
955.236	20.89932
955.41	63.05626
955.583	-46.53192
955.757	60.94819
955.93	6.14661
956.104	14.57659
956.278	-23.35526
956.451	-82.34441
956.625	-48.63874
956.798	-33.89048
956.972	14.57659
957.145	-44.42508
957.319	6.14661
957.492	90.46319
957.665	77.81336
957.839	14.57659
958.012	35.65319
958.185	-40.21131
958.359	-19.141
958.532	6.14661
958.705	-42.31821
958.879	-27.56942
959.052	-97.08857
959.225	25.11459
959.398	-21.24814
959.572	-63.38577
959.745	-33.89048
959.918	33.54542
960.091	-10.71218
960.264	-35.99745
960.438	4.03918
960.611	52.51615
960.784	-8.60492
960.957	-14.92664
961.13	-78.13156
961.303	48.30027
961.476	-52.8523
961.649	-40.21131
961.822	27.22227
961.995	-52.8523
962.168	-54.95905
962.341	-40.21131
962.514	-71.81209
962.686	-48.63874
962.859	18.79172
963.032	-23.35526
963.205	-25.46235
963.378	6.14661
963.551	-40.21131
963.723	-42.31821
963.896	-35.99745
964.069	-4.39031
964.242	6.14661
964.414	69.38059
964.587	-57.06577
964.76	-97.08857
964.932	-42.31821
965.105	-38.10439
965.278	-57.06577
965.45	-33.89048
965.623	-134.99622
965.795	1.93177
965.968	-23.35526
966.14	35.65319
966.313	-65.49239
966.485	-6.49763
966.658	-21.24814
966.83	52.51615
967.003	-21.24814
967.175	-10.71218
967.348	-6.49763
967.52	-23.35526
967.692	60.94819
967.865	-21.24814
968.037	1.93177
968.209	18.79172
968.382	-10.71218
968.554	-4.39031
968.726	-35.99745
968.898	41.97663
969.071	-31.78348
969.243	-23.35526
969.415	20.89932
969.587	-27.56942
969.759	-120.25538
969.932	8.25407
970.104	-2.28298
970.276	-2.28298
970.448	-73.91861
970.62	-19.141
970.792	-31.78348
970.964	23.00695
971.136	18.79172
971.308	1.93177
971.48	-19.141
971.652	4.03918
971.824	-82.34441
971.996	-109.72541
972.168	-38.10439
972.339	14.57659
972.511	20.89932
972.683	-73.91861
972.855	-23.35526
973.027	31.43768
973.199	-59.17246
973.37	-109.72541
973.542	54.62413
973.714	-12.81942
973.886	-0.17561
974.057	-38.10439
974.229	20.89932
974.401	4.03918
974.572	6.14661
974.744	-23.35526
974.915	-46.53192
975.087	-21.24814
975.259	-27.56942
975.43	23.00695
975.602	14.57659
975.773	29.32996
975.945	96.7884
976.116	18.79172
976.288	-31.78348
976.459	37.76098
976.63	-27.56942
976.802	-27.56942
976.973	-57.06577
977.145	4.03918
977.316	-46.53192
977.487	37.76098
977.659	-6.49763
977.83	-8.60492
978.001	4.03918
978.172	27.22227
978.344	46.19237
978.515	-12.81942
978.686	-38.10439
978.857	23.00695
979.028	-31.78348
979.2	-23.35526
979.371	-33.89048
979.542	1.93177
979.713	-67.59898
979.884	39.86879
980.055	-10.71218
980.226	31.43768
980.397	-61.27913
980.568	-31.78348
980.739	-82.34441
980.91	-57.06577
981.081	-48.63874
981.252	-19.141
981.423	-31.78348
981.594	33.54542
981.765	-33.89048
981.936	-48.63874
982.106	-40.21131
982.277	94.67998
982.448	-23.35526
982.619	-21.24814
982.79	-27.56942
982.96	-23.35526
983.131	-76.0251
983.302	60.94819
983.472	-4.39031
983.643	35.65319
983.814	-21.24814
983.984	-12.81942
984.155	75.70514
984.326	-12.81942
984.496	1.93177
984.667	25.11459
984.837	-103.40711
985.008	-19.141
985.178	-27.56942
985.349	-103.40711
985.519	-0.17561
985.69	6.14661
985.86	-46.53192
986.031	14.57659
986.201	-2.28298
986.371	-88.66349
986.542	-48.63874
986.712	-52.8523
986.882	-27.56942
987.053	-57.06577
987.223	37.76098
987.393	-4.39031
987.563	-61.27913
987.734	-54.95905
987.904	8.25407
988.074	46.19237
988.244	10.36155
988.414	-57.06577
988.585	37.76098
988.755	31.43768
988.925	27.22227
989.095	-12.81942
989.265	-14.92664
989.435	-59.17246
989.605	-71.81209
989.775	27.22227
989.945	-54.95905
990.115	-21.24814
990.285	8.25407
990.455	12.46906
990.625	-6.49763
990.795	-2.28298
990.965	10.36155
991.134	-27.56942
991.304	-54.95905
991.474	56.73213
991.644	8.25407
991.814	-17.03383
991.984	-31.78348
992.153	-31.78348
992.323	-52.8523
992.493	44.08449
992.662	-50.74553
992.832	-19.141
993.002	-44.42508
993.171	-35.99745
993.341	-23.35526
993.511	1.93177
993.68	-48.63874
993.85	-90.7698
994.019	-14.92664
994.189	37.76098
994.358	-31.78348
994.528	-80.238
994.697	16.68414
994.867	48.30027
995.036	-63.38577
995.206	12.46906
995.375	-25.46235
995.544	35.65319
995.714	-14.92664
995.883	44.08449
996.052	-17.03383
996.222	-12.81942
996.391	-4.39031
996.56	-48.63874
996.73	-31.78348
996.899	-48.63874
997.068	20.89932
997.237	-52.8523
997.406	-97.08857
997.576	31.43768
997.745	-61.27913
997.914	69.38059
998.083	-54.95905
998.252	6.14661
998.421	44.08449
998.59	-12.81942
998.759	4.03918
998.928	31.43768
999.097	-19.141
999.266	-12.81942
999.435	-88.66349
999.604	79.92161
999.773	-113.93748
999.942	-29.67646
1000.111	-38.10439
1000.28	-86.55716
1000.448	-29.67646
1000.617	10.36155
1000.786	-27.56942
1000.955	-12.81942
1001.124	18.79172
1001.292	-4.39031
1001.461	-73.91861
1001.63	27.22227
1001.798	1.93177
1001.967	71.48875
1002.136	-69.70555
1002.304	29.32996
1002.473	-12.81942
1002.642	-29.67646
1002.81	-48.63874
1002.979	23.00695
1003.147	16.68414
1003.316	60.94819
1003.484	-31.78348
1003.653	-57.06577
1003.821	27.22227
1003.99	10.36155
1004.158	-48.63874
1004.327	-38.10439
1004.495	-40.21131
1004.663	18.79172
1004.832	46.19237
1005	-12.81942
1005.168	10.36155
1005.337	-38.10439
1005.505	-94.98234
1005.673	-35.99745
1005.842	-40.21131
1006.01	12.46906
1006.178	-46.53192
1006.346	-31.78348
1006.514	46.19237
1006.683	23.00695
1006.851	14.57659
1007.019	-19.141
1007.187	-38.10439
1007.355	-50.74553
1007.523	56.73213
1007.691	-21.24814
1007.859	-44.42508
1008.027	10.36155
1008.195	-2.28298
1008.363	10.36155
1008.531	-46.53192
1008.699	8.25407
1008.867	-33.89048
1009.035	77.81336
1009.203	23.00695
1009.37	-25.46235
1009.538	-19.141
1009.706	14.57659
1009.874	10.36155
1010.042	16.68414
1010.209	-23.35526
1010.377	35.65319
1010.545	-48.63874
1010.713	-4.39031
1010.88	-2.28298
1011.048	1.93177
1011.216	-4.39031
1011.383	-71.81209
1011.551	-29.67646
1011.718	-29.67646
1011.886	-31.78348
1012.054	-94.98234
1012.221	20.89932
1012.389	20.89932
1012.556	-33.89048
1012.724	-14.92664
1012.891	12.46906
1013.058	-8.60492
1013.226	-14.92664
1013.393	-63.38577
1013.561	1.93177
1013.728	-73.91861
1013.895	6.14661
1014.063	-80.238
1014.23	69.38059
1014.397	77.81336
1014.565	-57.06577
1014.732	-63.38577
1014.899	6.14661
1015.066	14.57659
1015.233	-23.35526
1015.401	-82.34441
1015.568	-54.95905
1015.735	-48.63874
1015.902	-31.78348
1016.069	8.25407
1016.236	-23.35526
1016.403	-27.56942
1016.57	1.93177
1016.737	-21.24814
1016.904	48.30027
1017.071	29.32996
1017.238	-38.10439
1017.405	-29.67646
1017.572	8.25407
1017.739	-4.39031
1017.906	-42.31821
1018.073	-8.60492
1018.24	-42.31821
1018.407	23.00695
1018.573	31.43768
1018.74	-21.24814
1018.907	-10.71218
1019.074	-27.56942
1019.241	-25.46235
1019.407	-38.10439
1019.574	-35.99745
1019.741	-17.03383
1019.907	-40.21131
1020.074	-78.13156
1020.241	18.79172
1020.407	-6.49763
1020.574	23.00695
1020.74	-48.63874
1020.907	18.79172
1021.073	10.36155
1021.24	-27.56942
1021.406	-19.141
1021.573	-27.56942
1021.739	10.36155
1021.906	18.79172
1022.072	-17.03383
1022.239	41.97663
1022.405	14.57659
1022.571	-25.46235
1022.738	-113.93748
1022.904	-48.63874
1023.07	20.89932
1023.237	41.97663
1023.403	-10.71218
1023.569	-35.99745
1023.735	-73.91861
1023.902	-40.21131
1024.068	-27.56942
1024.234	35.65319
1024.4	-14.92664
1024.566	50.4082
1024.732	-54.95905
1024.898	-35.99745
1025.065	-21.24814
1025.231	-48.63874
1025.397	-116.04347
1025.563	-52.8523
1025.729	-40.21131
1025.895	-48.63874
1026.061	-38.10439
1026.227	-2.28298
1026.392	-103.40711
1026.558	-23.35526
1026.724	31.43768
1026.89	-61.27913
1027.056	-33.89048
1027.222	-2.28298
1027.388	-59.17246
1027.553	12.46906
1027.719	27.22227
1027.885	-40.21131
1028.051	10.36155
1028.216	-10.71218
1028.382	-31.78348
1028.548	-27.56942
1028.713	-21.24814
1028.879	6.14661
1029.045	18.79172
1029.21	-27.56942
1029.376	-6.49763
1029.541	-6.49763
1029.707	-48.63874
1029.873	1.93177
1030.038	-71.81209
1030.204	-17.03383
1030.369	27.22227
1030.534	-12.81942
1030.7	-12.81942
1030.865	18.79172
1031.031	-29.67646
1031.196	-44.42508
1031.361	-14.92664
1031.527	6.14661
1031.692	14.57659
1031.857	-52.8523
1032.023	-40.21131
1032.188	-14.92664
1032.353	-59.17246
1032.518	-44.42508
1032.684	4.03918
1032.849	-14.92664
1033.014	14.57659
1033.179	-40.21131
1033.344	39.86879
1033.509	1.93177
1033.674	-38.10439
1033.839	29.32996
1034.004	-0.17561
1034.17	-82.34441
1034.335	-86.55716
1034.5	48.30027
1034.664	-2.28298
1034.829	-0.17561
1034.994	10.36155
1035.159	23.00695
1035.324	8.25407
1035.489	18.79172
1035.654	35.65319
1035.819	-48.63874
1035.984	-8.60492
1036.148	-52.8523
1036.313	-84.4508
1036.478	-35.99745
1036.643	-88.66349
1036.807	-25.46235
1036.972	27.22227
1037.137	-10.71218
1037.301	1.93177
1037.466	29.32996
1037.631	-0.17561
1037.795	69.38059
1037.96	-4.39031
1038.124	-103.40711
1038.289	-12.81942
1038.454	23.00695
1038.618	-67.59898
1038.783	1.93177
1038.947	-23.35526
1039.111	25.11459
1039.276	-6.49763
1039.44	-2.28298
1039.605	-23.35526
1039.769	-21.24814
1039.933	-21.24814
1040.098	-33.89048
1040.262	-0.17561
1040.426	-40.21131
1040.591	-61.27913
1040.755	-44.42508
1040.919	-88.66349
1041.083	-54.95905
1041.248	-27.56942
1041.412	-78.13156
1041.576	-29.67646
1041.74	-61.27913
1041.904	-23.35526
1042.068	-65.49239
1042.232	6.14661
1042.397	-27.56942
1042.561	37.76098
1042.725	-19.141
1042.889	-44.42508
1043.053	-2.28298
1043.217	-76.0251
1043.381	-48.63874
1043.544	-31.78348
1043.708	-31.78348
1043.872	-23.35526
1044.036	-65.49239
1044.2	29.32996
1044.364	12.46906
1044.528	-57.06577
1044.691	-23.35526
1044.855	-80.238
1045.019	33.54542
1045.183	44.08449
1045.346	29.32996
1045.51	-128.67888
1045.674	-33.89048
1045.837	20.89932
1046.001	63.05626
1046.165	-23.35526
1046.328	23.00695
1046.492	-31.78348
1046.655	37.76098
1046.819	18.79172
1046.983	-44.42508
1047.146	1.93177
1047.31	23.00695
1047.473	14.57659
1047.636	-67.59898
1047.8	-25.46235
1047.963	27.22227
1048.127	77.81336
1048.29	-145.52458
