Data from Scatter_Coeff_Baseline_USB4F045381__10__0010.txt Node

Date: Thu Feb 13 19:17:10 EST 2025
User: mmckonesweet
Spectrometer: USB4F04538
Trigger mode: 4
Integration Time (sec): 2.400000E-3
Scans to average: 1
Electric dark correction enabled: true
Nonlinearity correction enabled: true
Boxcar width: 0
XAxis mode: Wavelengths
Number of Pixels in Spectrum: 3648
>>>>>Begin Spectral Data<<<<<
345.52	53.39447
345.736	53.39447
345.952	53.39447
346.168	-70.93437
346.384	51.28651
346.6	-20.37016
346.816	9.13219
347.032	9.13219
347.248	-54.08124
347.464	-26.69148
347.68	25.99279
347.896	9.13219
348.112	-75.1474
348.328	-5.61958
348.544	59.7185
348.76	34.42366
348.975	34.42366
349.191	-96.21098
349.407	-58.29468
349.623	0.70246
349.839	28.10047
350.055	7.02472
350.27	21.7775
350.486	-41.44034
350.702	36.53143
350.918	-16.15583
351.133	7.02472
351.349	-7.72688
351.565	9.13219
351.781	34.42366
351.996	9.13219
352.212	85.01664
352.428	9.13219
352.644	36.53143
352.859	30.20817
353.075	-1.40491
353.291	-45.65407
353.506	-45.65407
353.722	-7.72688
353.938	42.8549
354.153	53.39447
354.369	55.50246
354.584	55.50246
354.8	9.13219
355.016	0.70246
355.231	34.42366
355.447	-45.65407
355.662	11.23968
355.878	7.02472
356.093	-5.61958
356.309	11.23968
356.524	-81.46674
356.74	25.99279
356.955	42.8549
357.171	-24.5844
357.386	-62.50801
357.602	21.7775
357.817	9.13219
358.033	-20.37016
358.248	-3.51226
358.464	51.28651
358.679	-58.29468
358.895	-22.47729
359.11	2.80986
359.325	55.50246
359.541	-14.04863
359.756	-47.7609
359.972	21.7775
360.187	66.04272
360.402	53.39447
360.618	-28.79853
360.833	-20.37016
361.048	-1.40491
361.264	-64.61464
361.479	-28.79853
361.694	-5.61958
361.909	17.5623
362.125	7.02472
362.34	38.63923
362.555	-11.94141
362.77	7.02472
362.986	9.13219
363.201	57.61047
363.416	36.53143
363.631	34.42366
363.847	17.5623
364.062	11.23968
364.277	34.42366
364.492	34.42366
364.707	-7.72688
364.922	59.7185
365.138	30.20817
365.353	72.36716
365.568	2.80986
365.783	51.28651
365.998	25.99279
366.213	2.80986
366.428	13.34719
366.643	-5.61958
366.858	53.39447
367.073	51.28651
367.288	0.70246
367.503	53.39447
367.718	42.8549
367.933	-18.26301
368.148	-14.04863
368.363	66.04272
368.578	19.66988
368.793	42.8549
369.008	25.99279
369.223	-66.72124
369.438	87.12496
369.653	53.39447
369.868	-30.90556
370.083	11.23968
370.298	-20.37016
370.513	-54.08124
370.728	51.28651
370.943	0.70246
371.157	9.13219
371.372	-28.79853
371.587	68.15085
371.802	63.93463
372.017	42.8549
372.232	34.42366
372.446	-28.79853
372.661	32.3159
372.876	13.34719
373.091	17.5623
373.306	80.80005
373.52	-20.37016
373.735	30.20817
373.95	11.23968
374.165	68.15085
374.379	-11.94141
374.594	34.42366
374.809	21.7775
375.023	32.3159
375.238	19.66988
375.453	36.53143
375.667	-41.44034
375.882	-30.90556
376.097	36.53143
376.311	-11.94141
376.526	-3.51226
376.741	-22.47729
376.955	-11.94141
377.17	7.02472
377.384	-7.72688
377.599	19.66988
377.813	-7.72688
378.028	-30.90556
378.242	-16.15583
378.457	49.17857
378.672	110.318
378.886	34.42366
379.101	-28.79853
379.315	-1.40491
379.53	-7.72688
379.744	38.63923
379.958	76.58356
380.173	11.23968
380.387	-26.69148
380.602	34.42366
380.816	-7.72688
381.031	-39.33343
381.245	-26.69148
381.459	25.99279
381.674	38.63923
381.888	47.07066
382.103	-5.61958
382.317	63.93463
382.531	-45.65407
382.746	51.28651
382.96	-47.7609
383.174	-132.01306
383.388	72.36716
383.603	-1.40491
383.817	-20.37016
384.031	-91.99847
384.246	-7.72688
384.46	17.5623
384.674	23.88513
384.888	15.45473
385.103	13.34719
385.317	70.25899
385.531	-3.51226
385.745	38.63923
385.959	110.318
386.174	68.15085
386.388	17.5623
386.602	78.6918
386.816	-60.40135
387.03	34.42366
387.244	9.13219
387.458	15.45473
387.672	23.88513
387.887	-24.5844
388.101	11.23968
388.315	59.7185
388.529	44.96277
388.743	-20.37016
388.957	-22.47729
389.171	-39.33343
389.385	47.07066
389.599	-9.83416
389.813	36.53143
390.027	0.70246
390.241	21.7775
390.455	47.07066
390.669	95.55848
390.883	-41.44034
391.097	53.39447
391.311	-9.83416
391.525	-28.79853
391.738	2.80986
391.952	44.96277
392.166	42.8549
392.38	34.42366
392.594	55.50246
392.808	0.70246
393.022	7.02472
393.236	93.45007
393.449	-16.15583
393.663	66.04272
393.877	40.74705
394.091	40.74705
394.305	30.20817
394.518	0.70246
394.732	11.23968
394.946	-30.90556
395.16	-3.51226
395.373	17.5623
395.587	25.99279
395.801	-26.69148
396.015	-30.90556
396.228	44.96277
396.442	19.66988
396.656	-14.04863
396.869	2.80986
397.083	74.47535
397.297	32.3159
397.51	80.80005
397.724	-11.94141
397.938	17.5623
398.151	0.70246
398.365	25.99279
398.578	76.58356
398.792	-28.79853
399.005	-16.15583
399.219	34.42366
399.433	13.34719
399.646	15.45473
399.86	-5.61958
400.073	-79.36032
400.287	-87.78586
400.5	-39.33343
400.714	55.50246
400.927	-5.61958
401.141	78.6918
401.354	30.20817
401.567	-30.90556
401.781	-7.72688
401.994	-66.72124
402.208	-24.5844
402.421	-1.40491
402.635	25.99279
402.848	-11.94141
403.061	-16.15583
403.275	57.61047
403.488	-1.40491
403.701	19.66988
403.915	9.13219
404.128	53.39447
404.341	55.50246
404.555	-20.37016
404.768	85.01664
404.981	-3.51226
405.195	49.17857
405.408	25.99279
405.621	-22.47729
405.834	4.91728
406.048	17.5623
406.261	42.8549
406.474	51.28651
406.687	13.34719
406.9	34.42366
407.114	47.07066
407.327	17.5623
407.54	47.07066
407.753	57.61047
407.966	28.10047
408.179	72.36716
408.392	-41.44034
408.605	-3.51226
408.819	-14.04863
409.032	-16.15583
409.245	-47.7609
409.458	0.70246
409.671	-45.65407
409.884	32.3159
410.097	-35.11954
410.31	-3.51226
410.523	51.28651
410.736	122.96987
410.949	-7.72688
411.162	-41.44034
411.375	55.50246
411.588	4.91728
411.801	47.07066
412.014	7.02472
412.227	47.07066
412.44	42.8549
412.653	19.66988
412.865	51.28651
413.078	-33.01256
413.291	2.80986
413.504	-41.44034
413.717	17.5623
413.93	-1.40491
414.143	9.13219
414.356	2.80986
414.568	0.70246
414.781	15.45473
414.994	11.23968
415.207	15.45473
415.42	-47.7609
415.632	-16.15583
415.845	-58.29468
416.058	-3.51226
416.271	11.23968
416.483	74.47535
416.696	59.7185
416.909	25.99279
417.121	0.70246
417.334	-20.37016
417.547	25.99279
417.759	63.93463
417.972	-24.5844
418.185	-7.72688
418.397	34.42366
418.61	-22.47729
418.823	0.70246
419.035	17.5623
419.248	-33.01256
419.46	17.5623
419.673	-5.61958
419.885	9.13219
420.098	-22.47729
420.311	-7.72688
420.523	2.80986
420.736	28.10047
420.948	0.70246
421.161	17.5623
421.373	4.91728
421.586	68.15085
421.798	25.99279
422.01	9.13219
422.223	11.23968
422.435	9.13219
422.648	-30.90556
422.86	13.34719
423.073	-41.44034
423.285	47.07066
423.497	11.23968
423.71	9.13219
423.922	-24.5844
424.134	0.70246
424.347	-11.94141
424.559	-14.04863
424.771	-37.2265
424.984	44.96277
425.196	28.10047
425.408	-7.72688
425.621	-22.47729
425.833	11.23968
426.045	-30.90556
426.257	-70.93437
426.47	68.15085
426.682	-14.04863
426.894	19.66988
427.106	11.23968
427.318	55.50246
427.531	13.34719
427.743	21.7775
427.955	0.70246
428.167	15.45473
428.379	-18.26301
428.591	25.99279
428.804	76.58356
429.016	-66.72124
429.228	2.80986
429.44	49.17857
429.652	-49.86771
429.864	-11.94141
430.076	25.99279
430.288	36.53143
430.5	-30.90556
430.712	-41.44034
430.924	0.70246
431.136	-3.51226
431.348	-91.99847
431.56	85.01664
431.772	23.88513
431.984	4.91728
432.196	11.23968
432.408	59.7185
432.62	-37.2265
432.832	9.13219
433.044	23.88513
433.256	-66.72124
433.468	-3.51226
433.679	-81.46674
433.891	-3.51226
434.103	-16.15583
434.315	2.80986
434.527	51.28651
434.739	-35.11954
434.95	-3.51226
435.162	-54.08124
435.374	4.91728
435.586	4.91728
435.798	70.25899
436.009	-35.11954
436.221	-24.5844
436.433	59.7185
436.645	-33.01256
436.856	9.13219
437.068	-7.72688
437.28	25.99279
437.491	9.13219
437.703	-7.72688
437.915	-56.18797
438.126	0.70246
438.338	-22.47729
438.55	-30.90556
438.761	25.99279
438.973	47.07066
439.184	-70.93437
439.396	51.28651
439.608	-24.5844
439.819	42.8549
440.031	-58.29468
440.242	-41.44034
440.454	-33.01256
440.665	55.50246
440.877	-58.29468
441.088	59.7185
441.3	-45.65407
441.511	34.42366
441.723	76.58356
441.934	-3.51226
442.146	68.15085
442.357	0.70246
442.569	-9.83416
442.78	-14.04863
442.991	9.13219
443.203	68.15085
443.414	51.28651
443.626	47.07066
443.837	85.01664
444.048	-7.72688
444.26	23.88513
444.471	42.8549
444.682	0.70246
444.894	-54.08124
445.105	9.13219
445.316	-14.04863
445.528	72.36716
445.739	91.34168
445.95	-11.94141
446.161	4.91728
446.373	76.58356
446.584	4.91728
446.795	15.45473
447.006	23.88513
447.217	-22.47729
447.429	-3.51226
447.64	21.7775
447.851	-49.86771
448.062	-33.01256
448.273	-37.2265
448.484	-1.40491
448.695	17.5623
448.907	2.80986
449.118	59.7185
449.329	23.88513
449.54	-30.90556
449.751	-66.72124
449.962	-14.04863
450.173	0.70246
450.384	32.3159
450.595	2.80986
450.806	-45.65407
451.017	0.70246
451.228	28.10047
451.439	34.42366
451.65	9.13219
451.861	66.04272
452.072	-7.72688
452.283	2.80986
452.494	-5.61958
452.705	116.64384
452.915	30.20817
453.126	-54.08124
453.337	28.10047
453.548	-3.51226
453.759	-54.08124
453.97	0.70246
454.181	13.34719
454.391	-62.50801
454.602	-7.72688
454.813	36.53143
455.024	-14.04863
455.235	44.96277
455.445	-24.5844
455.656	-1.40491
455.867	21.7775
456.078	25.99279
456.288	7.02472
456.499	-11.94141
456.71	25.99279
456.921	-7.72688
457.131	-58.29468
457.342	-28.79853
457.553	97.66692
457.763	-16.15583
457.974	4.91728
458.184	-37.2265
458.395	85.01664
458.606	-37.2265
458.816	-49.86771
459.027	-56.18797
459.237	57.61047
459.448	-39.33343
459.659	36.53143
459.869	66.04272
460.08	80.80005
460.29	108.20943
460.501	2.80986
460.711	-14.04863
460.922	11.23968
461.132	85.01664
461.343	-16.15583
461.553	25.99279
461.764	42.8549
461.974	-7.72688
462.184	0.70246
462.395	-3.51226
462.605	42.8549
462.816	23.88513
463.026	19.66988
463.236	-58.29468
463.447	44.96277
463.657	51.28651
463.867	47.07066
464.078	-45.65407
464.288	-37.2265
464.498	30.20817
464.709	-14.04863
464.919	42.8549
465.129	25.99279
465.339	-56.18797
465.55	17.5623
465.76	11.23968
465.97	85.01664
466.18	70.25899
466.391	7.02472
466.601	0.70246
466.811	-70.93437
467.021	36.53143
467.231	-7.72688
467.441	19.66988
467.651	9.13219
467.862	4.91728
468.072	34.42366
468.282	25.99279
468.492	34.42366
468.702	-3.51226
468.912	76.58356
469.122	-43.54722
469.332	-14.04863
469.542	38.63923
469.752	68.15085
469.962	-11.94141
470.172	-89.89218
470.382	2.80986
470.592	-16.15583
470.802	-22.47729
471.012	-11.94141
471.222	17.5623
471.432	-3.51226
471.642	-14.04863
471.852	30.20817
472.062	68.15085
472.272	28.10047
472.482	68.15085
472.691	101.88386
472.901	-26.69148
473.111	-35.11954
473.321	-30.90556
473.531	9.13219
473.741	25.99279
473.95	2.80986
474.16	-37.2265
474.37	80.80005
474.58	-5.61958
474.79	11.23968
474.999	19.66988
475.209	9.13219
475.419	-24.5844
475.628	-22.47729
475.838	9.13219
476.048	0.70246
476.258	-7.72688
476.467	-39.33343
476.677	-9.83416
476.886	-16.15583
477.096	-70.93437
477.306	30.20817
477.515	-7.72688
477.725	-20.37016
477.935	9.13219
478.144	76.58356
478.354	-45.65407
478.563	-73.04089
478.773	9.13219
478.982	-16.15583
479.192	4.91728
479.401	87.12496
479.611	0.70246
479.82	21.7775
480.03	9.13219
480.239	34.42366
480.449	15.45473
480.658	25.99279
480.868	-7.72688
481.077	-7.72688
481.287	11.23968
481.496	15.45473
481.705	-33.01256
481.915	-37.2265
482.124	-11.94141
482.333	0.70246
482.543	-9.83416
482.752	38.63923
482.961	53.39447
483.171	40.74705
483.38	-16.15583
483.589	13.34719
483.799	-20.37016
484.008	-3.51226
484.217	32.3159
484.426	-3.51226
484.636	34.42366
484.845	-11.94141
485.054	63.93463
485.263	9.13219
485.472	-9.83416
485.682	23.88513
485.891	-39.33343
486.1	-3.51226
486.309	30.20817
486.518	-30.90556
486.727	42.8549
486.936	19.66988
487.146	-14.04863
487.355	-1.40491
487.564	36.53143
487.773	49.17857
487.982	89.23331
488.191	-5.61958
488.4	-5.61958
488.609	80.80005
488.818	51.28651
489.027	-43.54722
489.236	59.7185
489.445	-9.83416
489.654	87.12496
489.863	-16.15583
490.072	-11.94141
490.281	-14.04863
490.49	89.23331
490.698	2.80986
490.907	40.74705
491.116	25.99279
491.325	-5.61958
491.534	23.88513
491.743	-5.61958
491.952	-3.51226
492.16	66.04272
492.369	-41.44034
492.578	11.23968
492.787	-26.69148
492.996	-20.37016
493.204	-33.01256
493.413	-68.82782
493.622	0.70246
493.831	15.45473
494.039	13.34719
494.248	42.8549
494.457	2.80986
494.665	34.42366
494.874	47.07066
495.083	-22.47729
495.291	0.70246
495.5	-75.1474
495.709	-24.5844
495.917	-22.47729
496.126	7.02472
496.335	15.45473
496.543	-22.47729
496.752	25.99279
496.96	30.20817
497.169	-28.79853
497.377	57.61047
497.586	-24.5844
497.794	-30.90556
498.003	-24.5844
498.211	-66.72124
498.42	17.5623
498.628	51.28651
498.837	-3.51226
499.045	-9.83416
499.254	118.75249
499.462	-1.40491
499.671	-7.72688
499.879	44.96277
500.087	-28.79853
500.296	-41.44034
500.504	59.7185
500.713	-11.94141
500.921	13.34719
501.129	-16.15583
501.338	-77.25387
501.546	-1.40491
501.754	28.10047
501.962	15.45473
502.171	-45.65407
502.379	-62.50801
502.587	112.42659
502.795	-14.04863
503.004	-24.5844
503.212	68.15085
503.42	-56.18797
503.628	21.7775
503.837	25.99279
504.045	-20.37016
504.253	-22.47729
504.461	0.70246
504.669	-16.15583
504.877	-35.11954
505.085	-18.26301
505.294	85.01664
505.502	68.15085
505.71	-24.5844
505.918	51.28651
506.126	34.42366
506.334	36.53143
506.542	-16.15583
506.75	-58.29468
506.958	15.45473
507.166	-11.94141
507.374	-47.7609
507.582	9.13219
507.79	93.45007
507.998	-24.5844
508.206	13.34719
508.414	25.99279
508.622	76.58356
508.83	34.42366
509.037	-41.44034
509.245	59.7185
509.453	-35.11954
509.661	-11.94141
509.869	44.96277
510.077	30.20817
510.285	-11.94141
510.492	23.88513
510.7	40.74705
510.908	-30.90556
511.116	-33.01256
511.324	0.70246
511.531	44.96277
511.739	-5.61958
511.947	-22.47729
512.155	-1.40491
512.362	-30.90556
512.57	19.66988
512.778	-5.61958
512.985	42.8549
513.193	7.02472
513.401	-5.61958
513.608	13.34719
513.816	-7.72688
514.024	9.13219
514.231	2.80986
514.439	15.45473
514.646	42.8549
514.854	23.88513
515.061	68.15085
515.269	44.96277
515.477	4.91728
515.684	-35.11954
515.892	17.5623
516.099	63.93463
516.307	-18.26301
516.514	47.07066
516.722	-28.79853
516.929	19.66988
517.136	0.70246
517.344	0.70246
517.551	-26.69148
517.759	36.53143
517.966	57.61047
518.173	23.88513
518.381	28.10047
518.588	13.34719
518.796	-1.40491
519.003	9.13219
519.21	21.7775
519.418	-16.15583
519.625	-24.5844
519.832	7.02472
520.039	19.66988
520.247	-24.5844
520.454	34.42366
520.661	25.99279
520.868	59.7185
521.076	9.13219
521.283	-45.65407
521.49	85.01664
521.697	9.13219
521.904	25.99279
522.112	30.20817
522.319	85.01664
522.526	2.80986
522.733	-54.08124
522.94	28.10047
523.147	-94.10474
523.354	42.8549
523.561	19.66988
523.768	34.42366
523.975	-20.37016
524.183	-62.50801
524.39	66.04272
524.597	-56.18797
524.804	-49.86771
525.011	17.5623
525.218	11.23968
525.425	0.70246
525.632	-7.72688
525.838	55.50246
526.045	-26.69148
526.252	80.80005
526.459	0.70246
526.666	51.28651
526.873	13.34719
527.08	0.70246
527.287	68.15085
527.494	49.17857
527.701	0.70246
527.907	38.63923
528.114	-7.72688
528.321	51.28651
528.528	-41.44034
528.735	34.42366
528.941	13.34719
529.148	63.93463
529.355	0.70246
529.562	-37.2265
529.768	47.07066
529.975	-20.37016
530.182	9.13219
530.388	51.28651
530.595	-37.2265
530.802	34.42366
531.008	-1.40491
531.215	-14.04863
531.422	11.23968
531.628	-24.5844
531.835	-41.44034
532.042	49.17857
532.248	2.80986
532.455	-140.43596
532.661	-24.5844
532.868	30.20817
533.074	25.99279
533.281	55.50246
533.487	-68.82782
533.694	-37.2265
533.9	-9.83416
534.107	-28.79853
534.313	-58.29468
534.52	68.15085
534.726	42.8549
534.933	-1.40491
535.139	13.34719
535.345	44.96277
535.552	-3.51226
535.758	9.13219
535.965	-3.51226
536.171	28.10047
536.377	9.13219
536.584	-11.94141
536.79	-5.61958
536.996	21.7775
537.203	80.80005
537.409	-14.04863
537.615	-51.97449
537.821	25.99279
538.028	11.23968
538.234	-33.01256
538.44	68.15085
538.646	38.63923
538.853	40.74705
539.059	13.34719
539.265	-18.26301
539.471	68.15085
539.677	-1.40491
539.883	0.70246
540.09	4.91728
540.296	-14.04863
540.502	-54.08124
540.708	63.93463
540.914	9.13219
541.12	28.10047
541.326	13.34719
541.532	-64.61464
541.738	0.70246
541.944	25.99279
542.15	-5.61958
542.356	17.5623
542.562	-5.61958
542.768	4.91728
542.974	21.7775
543.18	76.58356
543.386	63.93463
543.592	-18.26301
543.798	32.3159
544.004	42.8549
544.21	32.3159
544.415	21.7775
544.621	-7.72688
544.827	-1.40491
545.033	-9.83416
545.239	30.20817
545.445	23.88513
545.651	-75.1474
545.856	9.13219
546.062	0.70246
546.268	-43.54722
546.474	68.15085
546.679	17.5623
546.885	-11.94141
547.091	-24.5844
547.297	34.42366
547.502	-33.01256
547.708	25.99279
547.914	-11.94141
548.119	4.91728
548.325	-64.61464
548.531	-5.61958
548.736	9.13219
548.942	9.13219
549.147	-28.79853
549.353	76.58356
549.559	-7.72688
549.764	68.15085
549.97	-3.51226
550.175	9.13219
550.381	-56.18797
550.586	-87.78586
550.792	17.5623
550.997	21.7775
551.203	32.3159
551.408	-7.72688
551.614	38.63923
551.819	34.42366
552.025	-16.15583
552.23	25.99279
552.435	0.70246
552.641	-7.72688
552.846	-30.90556
553.052	32.3159
553.257	-33.01256
553.462	21.7775
553.668	-11.94141
553.873	19.66988
554.078	2.80986
554.283	125.07859
554.489	-3.51226
554.694	93.45007
554.899	-11.94141
555.105	-14.04863
555.31	76.58356
555.515	7.02472
555.72	-16.15583
555.925	40.74705
556.131	-7.72688
556.336	-16.15583
556.541	-79.36032
556.746	0.70246
556.951	13.34719
557.156	68.15085
557.361	0.70246
557.567	-39.33343
557.772	21.7775
557.977	-7.72688
558.182	-3.51226
558.387	-1.40491
558.592	2.80986
558.797	-24.5844
559.002	-14.04863
559.207	34.42366
559.412	25.99279
559.617	15.45473
559.822	-7.72688
560.027	25.99279
560.232	-20.37016
560.437	2.80986
560.642	17.5623
560.847	13.34719
561.051	7.02472
561.256	-16.15583
561.461	47.07066
561.666	-7.72688
561.871	-14.04863
562.076	80.80005
562.281	42.8549
562.485	51.28651
562.69	-3.51226
562.895	-16.15583
563.1	-14.04863
563.305	-5.61958
563.509	-3.51226
563.714	-20.37016
563.919	30.20817
564.123	34.42366
564.328	-18.26301
564.533	23.88513
564.737	55.50246
564.942	-5.61958
565.147	21.7775
565.351	19.66988
565.556	23.88513
565.761	13.34719
565.965	25.99279
566.17	-9.83416
566.374	61.82655
566.579	21.7775
566.784	15.45473
566.988	15.45473
567.193	17.5623
567.397	-14.04863
567.602	-14.04863
567.806	-5.61958
568.011	9.13219
568.215	38.63923
568.42	-7.72688
568.624	34.42366
568.828	-85.67951
569.033	34.42366
569.237	-30.90556
569.442	-7.72688
569.646	2.80986
569.85	59.7185
570.055	-22.47729
570.259	44.96277
570.463	-39.33343
570.668	-64.61464
570.872	34.42366
571.076	9.13219
571.281	0.70246
571.485	-33.01256
571.689	-5.61958
571.893	-1.40491
572.098	0.70246
572.302	30.20817
572.506	53.39447
572.71	9.13219
572.914	38.63923
573.119	2.80986
573.323	-7.72688
573.527	25.99279
573.731	15.45473
573.935	11.23968
574.139	-7.72688
574.343	61.82655
574.547	-24.5844
574.751	51.28651
574.955	-5.61958
575.159	63.93463
575.364	-16.15583
575.568	89.23331
575.772	28.10047
575.976	-33.01256
576.18	30.20817
576.383	59.7185
576.587	-45.65407
576.791	13.34719
576.995	-28.79853
577.199	36.53143
577.403	44.96277
577.607	74.47535
577.811	0.70246
578.015	13.34719
578.219	-98.3172
578.422	-11.94141
578.626	28.10047
578.83	68.15085
579.034	-47.7609
579.238	2.80986
579.442	-7.72688
579.645	72.36716
579.849	-35.11954
580.053	4.91728
580.257	17.5623
580.46	19.66988
580.664	0.70246
580.868	106.10089
581.071	42.8549
581.275	0.70246
581.479	-3.51226
581.682	0.70246
581.886	-1.40491
582.09	53.39447
582.293	19.66988
582.497	44.96277
582.7	42.8549
582.904	4.91728
583.107	68.15085
583.311	38.63923
583.515	47.07066
583.718	25.99279
583.922	25.99279
584.125	36.53143
584.329	-45.65407
584.532	21.7775
584.735	-5.61958
584.939	63.93463
585.142	36.53143
585.346	-24.5844
585.549	-26.69148
585.753	17.5623
585.956	-51.97449
586.159	25.99279
586.363	28.10047
586.566	11.23968
586.769	-1.40491
586.973	-11.94141
587.176	23.88513
587.379	59.7185
587.582	38.63923
587.786	-14.04863
587.989	9.13219
588.192	-22.47729
588.395	76.58356
588.599	44.96277
588.802	9.13219
589.005	-33.01256
589.208	-30.90556
589.411	55.50246
589.615	-33.01256
589.818	55.50246
590.021	17.5623
590.224	72.36716
590.427	25.99279
590.63	42.8549
590.833	0.70246
591.036	53.39447
591.239	-16.15583
591.442	28.10047
591.645	-1.40491
591.848	0.70246
592.051	-3.51226
592.254	44.96277
592.457	55.50246
592.66	19.66988
592.863	-16.15583
593.066	42.8549
593.269	-7.72688
593.472	0.70246
593.675	28.10047
593.878	80.80005
594.081	23.88513
594.284	82.90833
594.486	51.28651
594.689	-33.01256
594.892	2.80986
595.095	11.23968
595.298	36.53143
595.5	9.13219
595.703	-49.86771
595.906	32.3159
596.109	25.99279
596.311	103.99236
596.514	-47.7609
596.717	-9.83416
596.92	36.53143
597.122	15.45473
597.325	25.99279
597.528	-56.18797
597.73	-5.61958
597.933	-73.04089
598.136	38.63923
598.338	0.70246
598.541	30.20817
598.743	2.80986
598.946	30.20817
599.148	28.10047
599.351	4.91728
599.554	42.8549
599.756	0.70246
599.959	34.42366
600.161	59.7185
600.363	118.75249
600.566	34.42366
600.768	72.36716
600.971	13.34719
601.173	-64.61464
601.376	-60.40135
601.578	-14.04863
601.78	-70.93437
601.983	13.34719
602.185	59.7185
602.388	0.70246
602.59	-11.94141
602.792	70.25899
602.995	34.42366
603.197	32.3159
603.399	36.53143
603.601	0.70246
603.804	38.63923
604.006	25.99279
604.208	-24.5844
604.41	2.80986
604.613	-37.2265
604.815	28.10047
605.017	68.15085
605.219	-1.40491
605.421	30.20817
605.623	85.01664
605.826	-64.61464
606.028	-26.69148
606.23	-22.47729
606.432	-18.26301
606.634	-54.08124
606.836	40.74705
607.038	-24.5844
607.24	-14.04863
607.442	17.5623
607.644	-1.40491
607.846	-33.01256
608.048	47.07066
608.25	61.82655
608.452	-22.47729
608.654	9.13219
608.856	-18.26301
609.058	2.80986
609.26	4.91728
609.462	25.99279
609.664	-54.08124
609.866	-58.29468
610.067	25.99279
610.269	-5.61958
610.471	0.70246
610.673	-14.04863
610.875	-37.2265
611.077	-45.65407
611.278	-66.72124
611.48	-39.33343
611.682	13.34719
611.884	-85.67951
612.085	-5.61958
612.287	42.8549
612.489	-11.94141
612.69	47.07066
612.892	17.5623
613.094	-30.90556
613.295	103.99236
613.497	59.7185
613.699	9.13219
613.9	-30.90556
614.102	-20.37016
614.304	9.13219
614.505	-35.11954
614.707	-20.37016
614.908	-28.79853
615.11	-51.97449
615.311	-3.51226
615.513	-41.44034
615.714	-24.5844
615.916	-20.37016
616.117	-16.15583
616.319	-1.40491
616.52	78.6918
616.722	7.02472
616.923	49.17857
617.124	97.66692
617.326	36.53143
617.527	-7.72688
617.729	7.02472
617.93	55.50246
618.131	-70.93437
618.333	-54.08124
618.534	42.8549
618.735	-20.37016
618.937	-20.37016
619.138	-30.90556
619.339	-3.51226
619.54	11.23968
619.742	-64.61464
619.943	47.07066
620.144	47.07066
620.345	55.50246
620.546	-5.61958
620.748	23.88513
620.949	13.34719
621.15	-14.04863
621.351	63.93463
621.552	17.5623
621.753	-5.61958
621.954	-41.44034
622.155	-20.37016
622.356	-3.51226
622.558	53.39447
622.759	72.36716
622.96	7.02472
623.161	9.13219
623.362	36.53143
623.563	9.13219
623.764	-5.61958
623.965	19.66988
624.166	-39.33343
624.366	36.53143
624.567	0.70246
624.768	-5.61958
624.969	-96.21098
625.17	28.10047
625.371	9.13219
625.572	-28.79853
625.773	-30.90556
625.973	-24.5844
626.174	38.63923
626.375	17.5623
626.576	-7.72688
626.777	17.5623
626.977	-62.50801
627.178	34.42366
627.379	-41.44034
627.58	21.7775
627.78	9.13219
627.981	25.99279
628.182	4.91728
628.382	25.99279
628.583	-37.2265
628.784	-7.72688
628.984	-35.11954
629.185	25.99279
629.386	7.02472
629.586	-56.18797
629.787	38.63923
629.987	-9.83416
630.188	-33.01256
630.388	0.70246
630.589	99.77538
630.79	-56.18797
630.99	-11.94141
631.191	9.13219
631.391	25.99279
631.591	-39.33343
631.792	-45.65407
631.992	42.8549
632.193	87.12496
632.393	-33.01256
632.594	-41.44034
632.794	-41.44034
632.994	11.23968
633.195	34.42366
633.395	25.99279
633.595	38.63923
633.796	17.5623
633.996	-9.83416
634.196	15.45473
634.397	23.88513
634.597	34.42366
634.797	-3.51226
634.997	25.99279
635.198	-33.01256
635.398	9.13219
635.598	34.42366
635.798	9.13219
635.998	63.93463
636.199	7.02472
636.399	-62.50801
636.599	51.28651
636.799	11.23968
636.999	-45.65407
637.199	-20.37016
637.399	42.8549
637.599	25.99279
637.799	-39.33343
637.999	19.66988
638.199	57.61047
638.399	59.7185
638.599	23.88513
638.799	-16.15583
638.999	11.23968
639.199	47.07066
639.399	7.02472
639.599	-5.61958
639.799	38.63923
639.999	-64.61464
640.199	97.66692
640.399	-5.61958
640.599	-24.5844
640.799	30.20817
640.998	78.6918
641.198	17.5623
641.398	-18.26301
641.598	55.50246
641.798	-54.08124
641.997	-39.33343
642.197	7.02472
642.397	-18.26301
642.597	-20.37016
642.796	-7.72688
642.996	-47.7609
643.196	0.70246
643.395	13.34719
643.595	0.70246
643.795	25.99279
643.994	21.7775
644.194	9.13219
644.394	74.47535
644.593	19.66988
644.793	-22.47729
644.992	4.91728
645.192	0.70246
645.392	25.99279
645.591	-14.04863
645.791	63.93463
645.99	-14.04863
646.19	9.13219
646.389	-7.72688
646.589	-20.37016
646.788	21.7775
646.987	55.50246
647.187	78.6918
647.386	25.99279
647.586	-22.47729
647.785	4.91728
647.984	13.34719
648.184	-24.5844
648.383	0.70246
648.582	-58.29468
648.782	9.13219
648.981	-45.65407
649.18	28.10047
649.38	25.99279
649.579	36.53143
649.778	30.20817
649.977	19.66988
650.177	38.63923
650.376	-28.79853
650.575	-41.44034
650.774	30.20817
650.973	17.5623
651.173	-47.7609
651.372	42.8549
651.571	51.28651
651.77	28.10047
651.969	110.318
652.168	-5.61958
652.367	11.23968
652.566	-22.47729
652.765	34.42366
652.964	28.10047
653.163	-1.40491
653.362	82.90833
653.561	-22.47729
653.76	-18.26301
653.959	-58.29468
654.158	99.77538
654.357	21.7775
654.556	-62.50801
654.755	-3.51226
654.954	-30.90556
655.153	55.50246
655.352	25.99279
655.551	2.80986
655.749	11.23968
655.948	7.02472
656.147	-51.97449
656.346	-54.08124
656.545	21.7775
656.743	-45.65407
656.942	25.99279
657.141	-5.61958
657.34	2.80986
657.538	-41.44034
657.737	38.63923
657.936	0.70246
658.135	59.7185
658.333	47.07066
658.532	21.7775
658.731	68.15085
658.929	-5.61958
659.128	36.53143
659.326	-30.90556
659.525	-3.51226
659.724	-75.1474
659.922	-7.72688
660.121	51.28651
660.319	44.96277
660.518	66.04272
660.716	-37.2265
660.915	-43.54722
661.113	17.5623
661.312	-66.72124
661.51	-5.61958
661.709	-28.79853
661.907	42.8549
662.105	55.50246
662.304	68.15085
662.502	-54.08124
662.701	34.42366
662.899	93.45007
663.097	42.8549
663.296	21.7775
663.494	4.91728
663.692	23.88513
663.891	66.04272
664.089	63.93463
664.287	-51.97449
664.485	108.20943
664.684	-47.7609
664.882	34.42366
665.08	51.28651
665.278	38.63923
665.476	0.70246
665.675	-16.15583
665.873	-22.47729
666.071	-11.94141
666.269	-24.5844
666.467	36.53143
666.665	11.23968
666.863	-66.72124
667.061	-30.90556
667.259	-11.94141
667.457	38.63923
667.655	17.5623
667.853	-37.2265
668.051	-11.94141
668.249	21.7775
668.447	15.45473
668.645	-7.72688
668.843	-56.18797
669.041	-24.5844
669.239	-14.04863
669.437	0.70246
669.635	13.34719
669.833	23.88513
670.031	44.96277
670.229	-39.33343
670.426	11.23968
670.624	-33.01256
670.822	2.80986
671.02	-7.72688
671.218	44.96277
671.415	-49.86771
671.613	19.66988
671.811	-26.69148
672.009	38.63923
672.206	9.13219
672.404	0.70246
672.602	25.99279
672.799	-11.94141
672.997	-7.72688
673.195	76.58356
673.392	19.66988
673.59	44.96277
673.788	2.80986
673.985	-20.37016
674.183	9.13219
674.38	-37.2265
674.578	70.25899
674.775	17.5623
674.973	21.7775
675.17	-45.65407
675.368	38.63923
675.565	131.40488
675.763	17.5623
675.96	-11.94141
676.158	-16.15583
676.355	42.8549
676.553	-49.86771
676.75	-30.90556
676.947	-37.2265
677.145	17.5623
677.342	21.7775
677.539	17.5623
677.737	0.70246
677.934	55.50246
678.131	13.34719
678.329	59.7185
678.526	-43.54722
678.723	55.50246
678.92	15.45473
679.118	2.80986
679.315	55.50246
679.512	47.07066
679.709	-1.40491
679.906	7.02472
680.104	-7.72688
680.301	13.34719
680.498	23.88513
680.695	-33.01256
680.892	40.74705
681.089	-26.69148
681.286	0.70246
681.483	38.63923
681.68	36.53143
681.877	7.02472
682.075	53.39447
682.272	17.5623
682.469	-45.65407
682.665	38.63923
682.862	0.70246
683.059	36.53143
683.256	23.88513
683.453	7.02472
683.65	34.42366
683.847	-7.72688
684.044	76.58356
684.241	17.5623
684.438	-22.47729
684.635	23.88513
684.831	9.13219
685.028	76.58356
685.225	-16.15583
685.422	72.36716
685.619	-89.89218
685.815	2.80986
686.012	30.20817
686.209	9.13219
686.405	57.61047
686.602	51.28651
686.799	11.23968
686.996	19.66988
687.192	4.91728
687.389	-26.69148
687.586	51.28651
687.782	63.93463
687.979	40.74705
688.175	-45.65407
688.372	21.7775
688.568	13.34719
688.765	51.28651
688.962	-20.37016
689.158	25.99279
689.355	9.13219
689.551	-24.5844
689.748	0.70246
689.944	49.17857
690.14	28.10047
690.337	63.93463
690.533	59.7185
690.73	-16.15583
690.926	25.99279
691.123	36.53143
691.319	-49.86771
691.515	34.42366
691.712	25.99279
691.908	80.80005
692.104	-16.15583
692.301	-24.5844
692.497	-3.51226
692.693	-24.5844
692.889	55.50246
693.086	-85.67951
693.282	36.53143
693.478	13.34719
693.674	-1.40491
693.87	42.8549
694.067	25.99279
694.263	-5.61958
694.459	51.28651
694.655	63.93463
694.851	-5.61958
695.047	59.7185
695.243	40.74705
695.439	-7.72688
695.635	-26.69148
695.831	30.20817
696.027	63.93463
696.224	-41.44034
696.42	-47.7609
696.615	25.99279
696.811	-14.04863
697.007	-14.04863
697.203	0.70246
697.399	-3.51226
697.595	-16.15583
697.791	-3.51226
697.987	25.99279
698.183	19.66988
698.379	42.8549
698.575	-11.94141
698.77	-3.51226
698.966	-7.72688
699.162	36.53143
699.358	0.70246
699.554	-66.72124
699.749	-20.37016
699.945	63.93463
700.141	25.99279
700.337	-20.37016
700.532	68.15085
700.728	-24.5844
700.924	47.07066
701.119	23.88513
701.315	-5.61958
701.511	-16.15583
701.706	-26.69148
701.902	59.7185
702.097	-24.5844
702.293	19.66988
702.489	34.42366
702.684	-41.44034
702.88	-11.94141
703.075	-66.72124
703.271	9.13219
703.466	-18.26301
703.662	11.23968
703.857	-45.65407
704.053	-30.90556
704.248	9.13219
704.443	2.80986
704.639	36.53143
704.834	-3.51226
705.03	-1.40491
705.225	34.42366
705.42	11.23968
705.616	-16.15583
705.811	-43.54722
706.006	15.45473
706.202	-5.61958
706.397	-98.3172
706.592	25.99279
706.787	21.7775
706.983	-41.44034
707.178	63.93463
707.373	0.70246
707.568	-3.51226
707.763	103.99236
707.959	2.80986
708.154	-24.5844
708.349	-14.04863
708.544	0.70246
708.739	-33.01256
708.934	-7.72688
709.129	57.61047
709.324	-7.72688
709.519	-18.26301
709.714	42.8549
709.909	55.50246
710.104	2.80986
710.299	-75.1474
710.494	-5.61958
710.689	38.63923
710.884	-28.79853
711.079	-14.04863
711.274	-24.5844
711.469	4.91728
711.664	-16.15583
711.859	-3.51226
712.054	59.7185
712.249	-64.61464
712.443	36.53143
712.638	-75.1474
712.833	53.39447
713.028	44.96277
713.223	-16.15583
713.417	15.45473
713.612	17.5623
713.807	11.23968
714.002	47.07066
714.196	2.80986
714.391	21.7775
714.586	-16.15583
714.78	-41.44034
714.975	-58.29468
715.17	-22.47729
715.364	13.34719
715.559	72.36716
715.754	13.34719
715.948	59.7185
716.143	32.3159
716.337	78.6918
716.532	34.42366
716.726	68.15085
716.921	-49.86771
717.115	30.20817
717.31	2.80986
717.504	15.45473
717.699	30.20817
717.893	-66.72124
718.088	-33.01256
718.282	-37.2265
718.476	59.7185
718.671	40.74705
718.865	-3.51226
719.059	21.7775
719.254	-33.01256
719.448	59.7185
719.642	34.42366
719.837	-58.29468
720.031	9.13219
720.225	34.42366
720.419	59.7185
720.614	2.80986
720.808	61.82655
721.002	-7.72688
721.196	-39.33343
721.39	42.8549
721.585	21.7775
721.779	0.70246
721.973	-37.2265
722.167	57.61047
722.361	70.25899
722.555	-30.90556
722.749	-58.29468
722.943	38.63923
723.137	-24.5844
723.331	51.28651
723.525	-5.61958
723.719	-11.94141
723.913	-51.97449
724.107	-33.01256
724.301	76.58356
724.495	-1.40491
724.689	36.53143
724.883	-26.69148
725.077	30.20817
725.271	-11.94141
725.465	-11.94141
725.659	19.66988
725.853	23.88513
726.046	28.10047
726.24	2.80986
726.434	55.50246
726.628	0.70246
726.822	-45.65407
727.015	2.80986
727.209	-5.61958
727.403	42.8549
727.596	28.10047
727.79	42.8549
727.984	47.07066
728.177	9.13219
728.371	-5.61958
728.565	17.5623
728.758	23.88513
728.952	38.63923
729.146	38.63923
729.339	-26.69148
729.533	-3.51226
729.726	19.66988
729.92	-16.15583
730.113	0.70246
730.307	34.42366
730.5	-5.61958
730.694	2.80986
730.887	-37.2265
731.081	4.91728
731.274	-75.1474
731.468	-5.61958
731.661	-11.94141
731.854	-16.15583
732.048	2.80986
732.241	42.8549
732.435	-24.5844
732.628	-47.7609
732.821	42.8549
733.014	4.91728
733.208	25.99279
733.401	28.10047
733.594	38.63923
733.788	-14.04863
733.981	11.23968
734.174	-5.61958
734.367	13.34719
734.56	89.23331
734.754	-37.2265
734.947	44.96277
735.14	-16.15583
735.333	72.36716
735.526	-7.72688
735.719	17.5623
735.912	-16.15583
736.105	-45.65407
736.298	36.53143
736.491	17.5623
736.684	-49.86771
736.877	34.42366
737.07	59.7185
737.263	-49.86771
737.456	34.42366
737.649	-16.15583
737.842	-16.15583
738.035	55.50246
738.228	47.07066
738.421	-14.04863
738.614	25.99279
738.807	-30.90556
739	42.8549
739.192	38.63923
739.385	-33.01256
739.578	-41.44034
739.771	53.39447
739.964	23.88513
740.156	-20.37016
740.349	53.39447
740.542	7.02472
740.735	42.8549
740.927	-3.51226
741.12	13.34719
741.313	30.20817
741.505	9.13219
741.698	36.53143
741.891	-9.83416
742.083	2.80986
742.276	17.5623
742.468	-20.37016
742.661	68.15085
742.854	-5.61958
743.046	51.28651
743.239	51.28651
743.431	36.53143
743.624	-20.37016
743.816	25.99279
744.009	-7.72688
744.201	-33.01256
744.393	-26.69148
744.586	-14.04863
744.778	34.42366
744.971	-7.72688
745.163	-3.51226
745.355	-22.47729
745.548	40.74705
745.74	-7.72688
745.932	-20.37016
746.125	13.34719
746.317	42.8549
746.509	-37.2265
746.702	38.63923
746.894	11.23968
747.086	-26.69148
747.278	-28.79853
747.471	-7.72688
747.663	21.7775
747.855	-16.15583
748.047	-7.72688
748.239	-43.54722
748.431	51.28651
748.623	21.7775
748.815	70.25899
749.008	-28.79853
749.2	38.63923
749.392	-7.72688
749.584	-28.79853
749.776	-39.33343
749.968	-7.72688
750.16	-11.94141
750.352	17.5623
750.544	-18.26301
750.736	-136.22456
750.928	-58.29468
751.12	53.39447
751.311	-47.7609
751.503	38.63923
751.695	-30.90556
751.887	19.66988
752.079	-5.61958
752.271	9.13219
752.463	13.34719
752.654	-11.94141
752.846	-58.29468
753.038	97.66692
753.23	-22.47729
753.421	19.66988
753.613	-66.72124
753.805	15.45473
753.997	13.34719
754.188	-22.47729
754.38	7.02472
754.572	85.01664
754.763	-66.72124
754.955	36.53143
755.146	-18.26301
755.338	44.96277
755.53	19.66988
755.721	25.99279
755.913	21.7775
756.104	-79.36032
756.296	-24.5844
756.487	-18.26301
756.679	-35.11954
756.87	-28.79853
757.062	19.66988
757.253	-24.5844
757.445	9.13219
757.636	-3.51226
757.827	30.20817
758.019	-60.40135
758.21	72.36716
758.401	9.13219
758.593	47.07066
758.784	-66.72124
758.975	34.42366
759.167	2.80986
759.358	40.74705
759.549	32.3159
759.74	55.50246
759.932	13.34719
760.123	-24.5844
760.314	25.99279
760.505	30.20817
760.696	25.99279
760.888	2.80986
761.079	4.91728
761.27	63.93463
761.461	42.8549
761.652	21.7775
761.843	-7.72688
762.034	47.07066
762.225	34.42366
762.416	51.28651
762.607	-37.2265
762.798	-81.46674
762.989	-1.40491
763.18	19.66988
763.371	-51.97449
763.562	-22.47729
763.753	25.99279
763.944	-5.61958
764.135	61.82655
764.326	-79.36032
764.517	-14.04863
764.708	7.02472
764.899	-20.37016
765.089	2.80986
765.28	106.10089
765.471	0.70246
765.662	47.07066
765.853	-60.40135
766.043	4.91728
766.234	-41.44034
766.425	-18.26301
766.615	0.70246
766.806	38.63923
766.997	11.23968
767.187	91.34168
767.378	21.7775
767.569	36.53143
767.759	-41.44034
767.95	44.96277
768.141	85.01664
768.331	34.42366
768.522	76.58356
768.712	-1.40491
768.903	-28.79853
769.093	28.10047
769.284	21.7775
769.474	-9.83416
769.665	30.20817
769.855	9.13219
770.046	17.5623
770.236	30.20817
770.426	0.70246
770.617	51.28651
770.807	70.25899
770.998	7.02472
771.188	-24.5844
771.378	-3.51226
771.569	85.01664
771.759	28.10047
771.949	97.66692
772.139	-7.72688
772.33	72.36716
772.52	-1.40491
772.71	55.50246
772.9	57.61047
773.09	-22.47729
773.281	-11.94141
773.471	23.88513
773.661	9.13219
773.851	-3.51226
774.041	-7.72688
774.231	19.66988
774.421	-33.01256
774.611	-22.47729
774.802	93.45007
774.992	19.66988
775.182	-18.26301
775.372	34.42366
775.562	-1.40491
775.752	30.20817
775.942	-9.83416
776.131	-11.94141
776.321	-7.72688
776.511	11.23968
776.701	-9.83416
776.891	53.39447
777.081	51.28651
777.271	9.13219
777.461	-5.61958
777.651	42.8549
777.84	-30.90556
778.03	-14.04863
778.22	9.13219
778.41	66.04272
778.599	-20.37016
778.789	-45.65407
778.979	51.28651
779.169	-20.37016
779.358	-1.40491
779.548	-16.15583
779.738	-3.51226
779.927	-43.54722
780.117	28.10047
780.307	53.39447
780.496	44.96277
780.686	55.50246
780.875	59.7185
781.065	-7.72688
781.254	49.17857
781.444	4.91728
781.633	36.53143
781.823	38.63923
782.012	-30.90556
782.202	-18.26301
782.391	57.61047
782.581	63.93463
782.77	-24.5844
782.96	7.02472
783.149	13.34719
783.338	51.28651
783.528	44.96277
783.717	-16.15583
783.906	44.96277
784.096	36.53143
784.285	-16.15583
784.474	-7.72688
784.663	-35.11954
784.853	-28.79853
785.042	-11.94141
785.231	-9.83416
785.42	21.7775
785.61	21.7775
785.799	66.04272
785.988	-47.7609
786.177	19.66988
786.366	-33.01256
786.555	13.34719
786.744	21.7775
786.933	13.34719
787.122	19.66988
787.312	11.23968
787.501	25.99279
787.69	-14.04863
787.879	40.74705
788.068	17.5623
788.257	-16.15583
788.445	17.5623
788.634	-14.04863
788.823	17.5623
789.012	13.34719
789.201	38.63923
789.39	13.34719
789.579	-24.5844
789.768	9.13219
789.957	-70.93437
790.145	4.91728
790.334	-56.18797
790.523	-1.40491
790.712	-37.2265
790.9	-35.11954
791.089	19.66988
791.278	-39.33343
791.467	68.15085
791.655	-11.94141
791.844	28.10047
792.033	21.7775
792.221	55.50246
792.41	17.5623
792.599	13.34719
792.787	2.80986
792.976	42.8549
793.164	-30.90556
793.353	34.42366
793.541	78.6918
793.73	47.07066
793.918	34.42366
794.107	-24.5844
794.295	4.91728
794.484	-11.94141
794.672	-47.7609
794.861	23.88513
795.049	-7.72688
795.238	23.88513
795.426	51.28651
795.614	-49.86771
795.803	17.5623
795.991	13.34719
796.179	-73.04089
796.368	-26.69148
796.556	42.8549
796.744	47.07066
796.932	19.66988
797.121	19.66988
797.309	17.5623
797.497	-33.01256
797.685	11.23968
797.874	112.42659
798.062	9.13219
798.25	-33.01256
798.438	-68.82782
798.626	63.93463
798.814	17.5623
799.002	9.13219
799.19	28.10047
799.378	28.10047
799.566	-1.40491
799.755	17.5623
799.943	-56.18797
800.131	4.91728
800.318	-58.29468
800.506	-18.26301
800.694	-68.82782
800.882	9.13219
801.07	13.34719
801.258	-16.15583
801.446	19.66988
801.634	19.66988
801.822	-7.72688
802.01	4.91728
802.197	-43.54722
802.385	-7.72688
802.573	28.10047
802.761	51.28651
802.949	-26.69148
803.136	63.93463
803.324	-16.15583
803.512	21.7775
803.699	-11.94141
803.887	-11.94141
804.075	-24.5844
804.262	25.99279
804.45	-20.37016
804.638	-9.83416
804.825	-33.01256
805.013	0.70246
805.201	36.53143
805.388	-49.86771
805.576	55.50246
805.763	-24.5844
805.951	13.34719
806.138	9.13219
806.326	19.66988
806.513	-7.72688
806.701	44.96277
806.888	-39.33343
807.075	-56.18797
807.263	55.50246
807.45	44.96277
807.638	17.5623
807.825	0.70246
808.012	55.50246
808.2	32.3159
808.387	17.5623
808.574	0.70246
808.761	-22.47729
808.949	51.28651
809.136	-22.47729
809.323	42.8549
809.51	13.34719
809.698	28.10047
809.885	30.20817
810.072	-14.04863
810.259	-22.47729
810.446	0.70246
810.633	34.42366
810.82	34.42366
811.008	61.82655
811.195	32.3159
811.382	-35.11954
811.569	-64.61464
811.756	25.99279
811.943	0.70246
812.13	0.70246
812.317	-16.15583
812.504	-7.72688
812.691	-14.04863
812.878	-28.79853
813.064	-60.40135
813.251	-37.2265
813.438	9.13219
813.625	-33.01256
813.812	-24.5844
813.999	-20.37016
814.186	-16.15583
814.372	-18.26301
814.559	-22.47729
814.746	-66.72124
814.933	0.70246
815.12	25.99279
815.306	-24.5844
815.493	-11.94141
815.68	-28.79853
815.866	2.80986
816.053	2.80986
816.24	25.99279
816.426	-5.61958
816.613	55.50246
816.799	0.70246
816.986	-30.90556
817.173	-26.69148
817.359	36.53143
817.546	42.8549
817.732	13.34719
817.919	55.50246
818.105	-70.93437
818.292	-14.04863
818.478	9.13219
818.665	-49.86771
818.851	74.47535
819.037	-26.69148
819.224	-24.5844
819.41	-22.47729
819.597	17.5623
819.783	4.91728
819.969	59.7185
820.156	68.15085
820.342	-30.90556
820.528	9.13219
820.714	-3.51226
820.901	-47.7609
821.087	47.07066
821.273	23.88513
821.459	32.3159
821.646	47.07066
821.832	-41.44034
822.018	-14.04863
822.204	38.63923
822.39	74.47535
822.576	-24.5844
822.762	21.7775
822.948	21.7775
823.134	-16.15583
823.32	-22.47729
823.507	30.20817
823.693	38.63923
823.879	17.5623
824.065	38.63923
824.25	-14.04863
824.436	-11.94141
824.622	13.34719
824.808	36.53143
824.994	32.3159
825.18	23.88513
825.366	38.63923
825.552	-22.47729
825.738	-14.04863
825.923	4.91728
826.109	53.39447
826.295	23.88513
826.481	34.42366
826.667	2.80986
826.852	80.80005
827.038	44.96277
827.224	-3.51226
827.409	-49.86771
827.595	-11.94141
827.781	-26.69148
827.966	-3.51226
828.152	0.70246
828.338	47.07066
828.523	42.8549
828.709	34.42366
828.894	-9.83416
829.08	-56.18797
829.266	11.23968
829.451	19.66988
829.637	-9.83416
829.822	-28.79853
830.008	13.34719
830.193	38.63923
830.378	70.25899
830.564	9.13219
830.749	34.42366
830.935	-64.61464
831.12	21.7775
831.305	30.20817
831.491	-28.79853
831.676	-58.29468
831.861	51.28651
832.047	42.8549
832.232	32.3159
832.417	34.42366
832.602	0.70246
832.788	42.8549
832.973	72.36716
833.158	42.8549
833.343	42.8549
833.528	-64.61464
833.714	13.34719
833.899	9.13219
834.084	70.25899
834.269	-3.51226
834.454	-28.79853
834.639	42.8549
834.824	17.5623
835.009	7.02472
835.194	-7.72688
835.379	61.82655
835.564	-1.40491
835.749	-18.26301
835.934	-35.11954
836.119	28.10047
836.304	68.15085
836.489	-11.94141
836.674	63.93463
836.859	-100.42339
837.044	36.53143
837.228	30.20817
837.413	-26.69148
837.598	76.58356
837.783	-11.94141
837.968	-1.40491
838.152	-3.51226
838.337	17.5623
838.522	2.80986
838.707	19.66988
838.891	34.42366
839.076	-39.33343
839.261	-33.01256
839.445	36.53143
839.63	-104.63569
839.815	0.70246
839.999	44.96277
840.184	2.80986
840.368	-20.37016
840.553	34.42366
840.737	9.13219
840.922	23.88513
841.106	95.55848
841.291	25.99279
841.475	-11.94141
841.66	30.20817
841.844	36.53143
842.029	-16.15583
842.213	17.5623
842.397	34.42366
842.582	9.13219
842.766	-24.5844
842.951	25.99279
843.135	-16.15583
843.319	25.99279
843.504	61.82655
843.688	-18.26301
843.872	80.80005
844.056	0.70246
844.241	32.3159
844.425	-41.44034
844.609	38.63923
844.793	55.50246
844.977	-1.40491
845.161	-9.83416
845.346	-20.37016
845.53	42.8549
845.714	30.20817
845.898	-22.47729
846.082	36.53143
846.266	51.28651
846.45	-11.94141
846.634	-73.04089
846.818	-30.90556
847.002	28.10047
847.186	2.80986
847.37	36.53143
847.554	-9.83416
847.738	23.88513
847.922	28.10047
848.106	32.3159
848.29	-22.47729
848.473	55.50246
848.657	-11.94141
848.841	-24.5844
849.025	21.7775
849.209	7.02472
849.392	17.5623
849.576	-26.69148
849.76	25.99279
849.944	-3.51226
850.127	19.66988
850.311	0.70246
850.495	-81.46674
850.678	9.13219
850.862	25.99279
851.046	42.8549
851.229	-33.01256
851.413	82.90833
851.596	0.70246
851.78	51.28651
851.964	11.23968
852.147	-14.04863
852.331	34.42366
852.514	-14.04863
852.698	19.66988
852.881	15.45473
853.065	-33.01256
853.248	0.70246
853.431	30.20817
853.615	-33.01256
853.798	-60.40135
853.982	0.70246
854.165	47.07066
854.348	11.23968
854.532	-20.37016
854.715	-11.94141
854.898	0.70246
855.081	-47.7609
855.265	-3.51226
855.448	-3.51226
855.631	40.74705
855.814	42.8549
855.997	-30.90556
856.181	114.5352
856.364	-3.51226
856.547	-11.94141
856.73	57.61047
856.913	17.5623
857.096	0.70246
857.279	-51.97449
857.462	38.63923
857.645	7.02472
857.828	38.63923
858.011	-33.01256
858.194	34.42366
858.377	63.93463
858.56	42.8549
858.743	0.70246
858.926	-58.29468
859.109	51.28651
859.292	9.13219
859.475	-16.15583
859.658	2.80986
859.841	-35.11954
860.023	0.70246
860.206	9.13219
860.389	0.70246
860.572	42.8549
860.755	-16.15583
860.937	25.99279
861.12	0.70246
861.303	34.42366
861.486	0.70246
861.668	36.53143
861.851	-33.01256
862.034	-30.90556
862.216	-64.61464
862.399	36.53143
862.581	59.7185
862.764	-20.37016
862.947	34.42366
863.129	-1.40491
863.312	-1.40491
863.494	59.7185
863.677	25.99279
863.859	66.04272
864.042	-41.44034
864.224	-20.37016
864.406	-62.50801
864.589	78.6918
864.771	44.96277
864.954	-49.86771
865.136	11.23968
865.318	13.34719
865.501	-11.94141
865.683	-26.69148
865.865	-37.2265
866.048	63.93463
866.23	13.34719
866.412	21.7775
866.594	-22.47729
866.777	30.20817
866.959	49.17857
867.141	0.70246
867.323	-18.26301
867.505	-14.04863
867.687	11.23968
867.869	11.23968
868.052	-64.61464
868.234	51.28651
868.416	55.50246
868.598	51.28651
868.78	63.93463
868.962	-30.90556
869.144	55.50246
869.326	76.58356
869.508	-3.51226
869.69	42.8549
869.872	13.34719
870.054	-9.83416
870.236	28.10047
870.417	23.88513
870.599	25.99279
870.781	-22.47729
870.963	66.04272
871.145	59.7185
871.327	-117.27196
871.508	-3.51226
871.69	9.13219
871.872	-30.90556
872.054	-22.47729
872.235	-37.2265
872.417	-7.72688
872.599	40.74705
872.78	-37.2265
872.962	-39.33343
873.144	-5.61958
873.325	21.7775
873.507	-66.72124
873.689	25.99279
873.87	-5.61958
874.052	-3.51226
874.233	-22.47729
874.415	47.07066
874.596	-45.65407
874.778	-16.15583
874.959	44.96277
875.141	4.91728
875.322	34.42366
875.503	-54.08124
875.685	2.80986
875.866	61.82655
876.048	25.99279
876.229	-37.2265
876.41	11.23968
876.592	19.66988
876.773	53.39447
876.954	44.96277
877.136	42.8549
877.317	4.91728
877.498	15.45473
877.679	-28.79853
877.86	-26.69148
878.042	19.66988
878.223	47.07066
878.404	-30.90556
878.585	-45.65407
878.766	-16.15583
878.947	-41.44034
879.128	-3.51226
879.309	2.80986
879.49	42.8549
879.672	-43.54722
879.853	47.07066
880.034	-33.01256
880.215	11.23968
880.396	-33.01256
880.576	2.80986
880.757	-26.69148
880.938	-51.97449
881.119	4.91728
881.3	87.12496
881.481	72.36716
881.662	-41.44034
881.843	7.02472
882.023	-1.40491
882.204	49.17857
882.385	32.3159
882.566	-35.11954
882.747	57.61047
882.927	59.7185
883.108	38.63923
883.289	-28.79853
883.469	-14.04863
883.65	-1.40491
883.831	25.99279
884.011	-20.37016
884.192	11.23968
884.373	-33.01256
884.553	2.80986
884.734	87.12496
884.914	-11.94141
885.095	34.42366
885.275	9.13219
885.456	34.42366
885.636	-33.01256
885.817	-16.15583
885.997	32.3159
886.178	-3.51226
886.358	47.07066
886.538	36.53143
886.719	42.8549
886.899	68.15085
887.08	47.07066
887.26	-20.37016
887.44	9.13219
887.621	-49.86771
887.801	59.7185
887.981	68.15085
888.161	-75.1474
888.342	36.53143
888.522	25.99279
888.702	-5.61958
888.882	13.34719
889.062	-14.04863
889.242	57.61047
889.423	-24.5844
889.603	-22.47729
889.783	72.36716
889.963	78.6918
890.143	0.70246
890.323	-47.7609
890.503	47.07066
890.683	70.25899
890.863	-68.82782
891.043	34.42366
891.223	-24.5844
891.403	28.10047
891.583	23.88513
891.763	-16.15583
891.943	32.3159
892.122	49.17857
892.302	51.28651
892.482	34.42366
892.662	-14.04863
892.842	25.99279
893.022	17.5623
893.201	21.7775
893.381	59.7185
893.561	25.99279
893.741	63.93463
893.92	-20.37016
894.1	-7.72688
894.28	2.80986
894.459	-7.72688
894.639	-30.90556
894.819	15.45473
894.998	-89.89218
895.178	21.7775
895.357	-14.04863
895.537	-41.44034
895.716	23.88513
895.896	78.6918
896.075	-41.44034
896.255	19.66988
896.434	17.5623
896.614	30.20817
896.793	32.3159
896.973	0.70246
897.152	-18.26301
897.331	-49.86771
897.511	-16.15583
897.69	7.02472
897.87	25.99279
898.049	-11.94141
898.228	7.02472
898.407	42.8549
898.587	23.88513
898.766	-22.47729
898.945	-5.61958
899.124	118.75249
899.304	-37.2265
899.483	0.70246
899.662	-79.36032
899.841	32.3159
900.02	-11.94141
900.199	-1.40491
900.378	36.53143
900.557	-39.33343
900.737	-11.94141
900.916	-24.5844
901.095	23.88513
901.274	4.91728
901.453	-108.84788
901.632	-28.79853
901.811	-30.90556
901.989	-35.11954
902.168	2.80986
902.347	17.5623
902.526	21.7775
902.705	42.8549
902.884	-140.43596
903.063	21.7775
903.242	25.99279
903.42	-16.15583
903.599	-24.5844
903.778	-24.5844
903.957	7.02472
904.135	9.13219
904.314	68.15085
904.493	17.5623
904.672	51.28651
904.85	23.88513
905.029	-11.94141
905.207	0.70246
905.386	-1.40491
905.565	23.88513
905.743	76.58356
905.922	-83.57314
906.1	-7.72688
906.279	30.20817
906.457	36.53143
906.636	-22.47729
906.814	30.20817
906.993	-7.72688
907.171	36.53143
907.35	-18.26301
907.528	42.8549
907.707	-60.40135
907.885	36.53143
908.063	-62.50801
908.242	9.13219
908.42	-33.01256
908.598	-3.51226
908.777	7.02472
908.955	63.93463
909.133	0.70246
909.311	63.93463
909.49	-3.51226
909.668	49.17857
909.846	9.13219
910.024	-9.83416
910.202	7.02472
910.38	-66.72124
910.559	-7.72688
910.737	-18.26301
910.915	34.42366
911.093	-9.83416
911.271	44.96277
911.449	-79.36032
911.627	17.5623
911.805	34.42366
911.983	32.3159
912.161	17.5623
912.339	4.91728
912.517	-51.97449
912.695	-33.01256
912.872	-5.61958
913.05	-24.5844
913.228	0.70246
913.406	53.39447
913.584	-14.04863
913.762	63.93463
913.939	44.96277
914.117	36.53143
914.295	-26.69148
914.473	34.42366
914.65	-39.33343
914.828	-37.2265
915.006	-28.79853
915.184	-64.61464
915.361	32.3159
915.539	72.36716
915.716	-16.15583
915.894	-33.01256
916.072	13.34719
916.249	13.34719
916.427	13.34719
916.604	-35.11954
916.782	13.34719
916.959	7.02472
917.137	-16.15583
917.314	78.6918
917.492	-20.37016
917.669	-37.2265
917.847	-16.15583
918.024	-7.72688
918.201	36.53143
918.379	78.6918
918.556	25.99279
918.733	-58.29468
918.911	13.34719
919.088	-7.72688
919.265	-49.86771
919.442	25.99279
919.62	-41.44034
919.797	21.7775
919.974	-77.25387
920.151	-47.7609
920.328	7.02472
920.506	-28.79853
920.683	-7.72688
920.86	-96.21098
921.037	15.45473
921.214	9.13219
921.391	-62.50801
921.568	-18.26301
921.745	17.5623
921.922	2.80986
922.099	42.8549
922.276	23.88513
922.453	7.02472
922.63	13.34719
922.807	30.20817
922.984	63.93463
923.161	34.42366
923.338	49.17857
923.514	7.02472
923.691	-26.69148
923.868	38.63923
924.045	34.42366
924.222	44.96277
924.399	51.28651
924.575	47.07066
924.752	-14.04863
924.929	40.74705
925.105	2.80986
925.282	53.39447
925.459	-3.51226
925.635	76.58356
925.812	4.91728
925.989	42.8549
926.165	9.13219
926.342	11.23968
926.518	11.23968
926.695	19.66988
926.871	25.99279
927.048	17.5623
927.224	-20.37016
927.401	55.50246
927.577	-24.5844
927.754	-79.36032
927.93	-30.90556
928.107	-5.61958
928.283	25.99279
928.459	21.7775
928.636	2.80986
928.812	87.12496
928.988	59.7185
929.165	9.13219
929.341	-22.47729
929.517	51.28651
929.693	-33.01256
929.87	0.70246
930.046	-3.51226
930.222	-14.04863
930.398	51.28651
930.574	2.80986
930.751	-43.54722
930.927	-39.33343
931.103	-14.04863
931.279	9.13219
931.455	55.50246
931.631	44.96277
931.807	21.7775
931.983	4.91728
932.159	-20.37016
932.335	21.7775
932.511	-73.04089
932.687	25.99279
932.863	-7.72688
933.039	28.10047
933.215	-45.65407
933.391	15.45473
933.566	53.39447
933.742	4.91728
933.918	44.96277
934.094	-14.04863
934.27	-9.83416
934.445	63.93463
934.621	-24.5844
934.797	30.20817
934.973	28.10047
935.148	-26.69148
935.324	-5.61958
935.5	30.20817
935.675	82.90833
935.851	4.91728
936.027	21.7775
936.202	34.42366
936.378	-1.40491
936.553	13.34719
936.729	-54.08124
936.904	-35.11954
937.08	-1.40491
937.255	-22.47729
937.431	-16.15583
937.606	-3.51226
937.782	40.74705
937.957	21.7775
938.133	25.99279
938.308	23.88513
938.483	-41.44034
938.659	-37.2265
938.834	-24.5844
939.009	-62.50801
939.185	38.63923
939.36	17.5623
939.535	-11.94141
939.71	42.8549
939.886	-108.84788
940.061	-24.5844
940.236	21.7775
940.411	-41.44034
940.586	2.80986
940.761	-22.47729
940.937	-16.15583
941.112	44.96277
941.287	-41.44034
941.462	68.15085
941.637	25.99279
941.812	89.23331
941.987	9.13219
942.162	38.63923
942.337	23.88513
942.512	7.02472
942.687	44.96277
942.862	9.13219
943.037	0.70246
943.212	42.8549
943.386	-11.94141
943.561	-11.94141
943.736	34.42366
943.911	-30.90556
944.086	-22.47729
944.26	-3.51226
944.435	-3.51226
944.61	19.66988
944.785	38.63923
944.959	-24.5844
945.134	17.5623
945.309	101.88386
945.483	-24.5844
945.658	47.07066
945.833	-16.15583
946.007	17.5623
946.182	30.20817
946.357	-70.93437
946.531	36.53143
946.706	-11.94141
946.88	42.8549
947.055	51.28651
947.229	9.13219
947.404	-64.61464
947.578	28.10047
947.752	9.13219
947.927	51.28651
948.101	34.42366
948.276	17.5623
948.45	-14.04863
948.624	85.01664
948.799	13.34719
948.973	13.34719
949.147	-7.72688
949.321	4.91728
949.496	51.28651
949.67	34.42366
949.844	-20.37016
950.018	-7.72688
950.193	13.34719
950.367	21.7775
950.541	15.45473
950.715	13.34719
950.889	-45.65407
951.063	-22.47729
951.237	4.91728
951.411	-37.2265
951.585	-64.61464
951.759	-3.51226
951.933	-11.94141
952.107	38.63923
952.281	4.91728
952.455	118.75249
952.629	-49.86771
952.803	7.02472
952.977	13.34719
953.151	44.96277
953.325	-7.72688
953.499	21.7775
953.672	63.93463
953.846	19.66988
954.02	2.80986
954.194	-20.37016
954.368	72.36716
954.541	-24.5844
954.715	0.70246
954.889	-33.01256
955.062	-18.26301
955.236	-7.72688
955.41	-3.51226
955.583	30.20817
955.757	-7.72688
955.93	44.96277
956.104	2.80986
956.278	21.7775
956.451	-7.72688
956.625	59.7185
956.798	-47.7609
956.972	25.99279
957.145	17.5623
957.319	-16.15583
957.492	-22.47729
957.665	9.13219
957.839	47.07066
958.012	-60.40135
958.185	-24.5844
958.359	-7.72688
958.532	38.63923
958.705	30.20817
958.879	68.15085
959.052	11.23968
959.225	23.88513
959.398	-81.46674
959.572	-58.29468
959.745	-26.69148
959.918	9.13219
960.091	25.99279
960.264	25.99279
960.438	17.5623
960.611	9.13219
960.784	2.80986
960.957	44.96277
961.13	4.91728
961.303	53.39447
961.476	30.20817
961.649	11.23968
961.822	-35.11954
961.995	-56.18797
962.168	66.04272
962.341	-62.50801
962.514	-3.51226
962.686	9.13219
962.859	42.8549
963.032	-3.51226
963.205	-45.65407
963.378	78.6918
963.551	-41.44034
963.723	25.99279
963.896	42.8549
964.069	28.10047
964.242	0.70246
964.414	-49.86771
964.587	17.5623
964.76	15.45473
964.932	-41.44034
965.105	-16.15583
965.278	25.99279
965.45	38.63923
965.623	9.13219
965.795	34.42366
965.968	4.91728
966.14	-33.01256
966.313	19.66988
966.485	-18.26301
966.658	23.88513
966.83	34.42366
967.003	19.66988
967.175	11.23968
967.348	-18.26301
967.52	-3.51226
967.692	-11.94141
967.865	19.66988
968.037	19.66988
968.209	47.07066
968.382	-64.61464
968.554	21.7775
968.726	-20.37016
968.898	-11.94141
969.071	-5.61958
969.243	15.45473
969.415	25.99279
969.587	-26.69148
969.759	-56.18797
969.932	51.28651
970.104	17.5623
970.276	40.74705
970.448	53.39447
970.62	-3.51226
970.792	28.10047
970.964	0.70246
971.136	4.91728
971.308	-39.33343
971.48	9.13219
971.652	0.70246
971.824	21.7775
971.996	-7.72688
972.168	42.8549
972.339	-41.44034
972.511	-7.72688
972.683	93.45007
972.855	0.70246
973.027	-22.47729
973.199	-7.72688
973.37	13.34719
973.542	21.7775
973.714	-1.40491
973.886	-41.44034
974.057	44.96277
974.229	-7.72688
974.401	9.13219
974.572	2.80986
974.744	49.17857
974.915	47.07066
975.087	2.80986
975.259	82.90833
975.43	36.53143
975.602	-3.51226
975.773	19.66988
975.945	17.5623
976.116	-14.04863
976.288	7.02472
976.459	-11.94141
976.63	9.13219
976.802	-35.11954
976.973	34.42366
977.145	-18.26301
977.316	55.50246
977.487	106.10089
977.659	-7.72688
977.83	-104.63569
978.001	-16.15583
978.172	9.13219
978.344	-9.83416
978.515	-18.26301
978.686	-24.5844
978.857	-79.36032
979.028	2.80986
979.2	51.28651
979.371	-62.50801
979.542	-1.40491
979.713	11.23968
979.884	51.28651
980.055	34.42366
980.226	13.34719
980.397	2.80986
980.568	-11.94141
980.739	9.13219
980.91	0.70246
981.081	51.28651
981.252	68.15085
981.423	-41.44034
981.594	25.99279
981.765	2.80986
981.936	-11.94141
982.106	19.66988
982.277	2.80986
982.448	49.17857
982.619	80.80005
982.79	-49.86771
982.96	4.91728
983.131	-98.3172
983.302	-45.65407
983.472	-33.01256
983.643	21.7775
983.814	-35.11954
983.984	40.74705
984.155	-11.94141
984.326	25.99279
984.496	-5.61958
984.667	-26.69148
984.837	51.28651
985.008	36.53143
985.178	17.5623
985.349	-22.47729
985.519	0.70246
985.69	7.02472
985.86	-18.26301
986.031	-24.5844
986.201	-30.90556
986.371	34.42366
986.542	-24.5844
986.712	25.99279
986.882	-24.5844
987.053	28.10047
987.223	38.63923
987.393	-70.93437
987.563	103.99236
987.734	42.8549
987.904	59.7185
988.074	28.10047
988.244	36.53143
988.414	-24.5844
988.585	25.99279
988.755	19.66988
988.925	25.99279
989.095	7.02472
989.265	-56.18797
989.435	-11.94141
989.605	19.66988
989.775	-14.04863
989.945	34.42366
990.115	4.91728
990.285	-24.5844
990.455	47.07066
990.625	13.34719
990.795	30.20817
990.965	21.7775
991.134	19.66988
991.304	80.80005
991.474	-16.15583
991.644	38.63923
991.814	-1.40491
991.984	7.02472
992.153	15.45473
992.323	21.7775
992.493	-77.25387
992.662	25.99279
992.832	-20.37016
993.002	148.27594
993.171	51.28651
993.341	25.99279
993.511	93.45007
993.68	17.5623
993.85	2.80986
994.019	2.80986
994.189	19.66988
994.358	2.80986
994.528	-5.61958
994.697	-3.51226
994.867	36.53143
995.036	55.50246
995.206	-54.08124
995.375	-16.15583
995.544	68.15085
995.714	38.63923
995.883	-45.65407
996.052	25.99279
996.222	4.91728
996.391	25.99279
996.56	-7.72688
996.73	34.42366
996.899	47.07066
997.068	70.25899
997.237	55.50246
997.406	55.50246
997.576	15.45473
997.745	-43.54722
997.914	0.70246
998.083	51.28651
998.252	-16.15583
998.421	-41.44034
998.59	17.5623
998.759	30.20817
998.928	-110.95394
999.097	17.5623
999.266	-7.72688
999.435	17.5623
999.604	-20.37016
999.773	59.7185
999.942	-66.72124
1000.111	-33.01256
1000.28	7.02472
1000.448	70.25899
1000.617	-9.83416
1000.786	30.20817
1000.955	40.74705
1001.124	42.8549
1001.292	59.7185
1001.461	80.80005
1001.63	-28.79853
1001.798	25.99279
1001.967	-47.7609
1002.136	80.80005
1002.304	-14.04863
1002.473	-45.65407
1002.642	72.36716
1002.81	-54.08124
1002.979	38.63923
1003.147	-35.11954
1003.316	49.17857
1003.484	0.70246
1003.653	25.99279
1003.821	23.88513
1003.99	25.99279
1004.158	2.80986
1004.327	44.96277
1004.495	28.10047
1004.663	19.66988
1004.832	-18.26301
1005	59.7185
1005.168	42.8549
1005.337	76.58356
1005.505	19.66988
1005.673	42.8549
1005.842	61.82655
1006.01	17.5623
1006.178	9.13219
1006.346	72.36716
1006.514	-14.04863
1006.683	11.23968
1006.851	25.99279
1007.019	11.23968
1007.187	-33.01256
1007.355	-9.83416
1007.523	-35.11954
1007.691	-11.94141
1007.859	-7.72688
1008.027	44.96277
1008.195	0.70246
1008.363	59.7185
1008.531	-30.90556
1008.699	28.10047
1008.867	-18.26301
1009.035	57.61047
1009.203	49.17857
1009.37	-16.15583
1009.538	32.3159
1009.706	-33.01256
1009.874	89.23331
1010.042	-41.44034
1010.209	0.70246
1010.377	17.5623
1010.545	36.53143
1010.713	-14.04863
1010.88	-3.51226
1011.048	32.3159
1011.216	17.5623
1011.383	-11.94141
1011.551	11.23968
1011.718	17.5623
1011.886	-14.04863
1012.054	-9.83416
1012.221	42.8549
1012.389	0.70246
1012.556	19.66988
1012.724	-16.15583
1012.891	-16.15583
1013.058	-24.5844
1013.226	-18.26301
1013.393	-7.72688
1013.561	30.20817
1013.728	-18.26301
1013.895	61.82655
1014.063	4.91728
1014.23	-24.5844
1014.397	-30.90556
1014.565	0.70246
1014.732	-16.15583
1014.899	30.20817
1015.066	-5.61958
1015.233	-26.69148
1015.401	93.45007
1015.568	-54.08124
1015.735	66.04272
1015.902	-3.51226
1016.069	106.10089
1016.236	11.23968
1016.403	9.13219
1016.57	-14.04863
1016.737	7.02472
1016.904	17.5623
1017.071	-9.83416
1017.238	-49.86771
1017.405	17.5623
1017.572	-16.15583
1017.739	-24.5844
1017.906	57.61047
1018.073	36.53143
1018.24	-33.01256
1018.407	40.74705
1018.573	-9.83416
1018.74	11.23968
1018.907	-37.2265
1019.074	-37.2265
1019.241	42.8549
1019.407	-16.15583
1019.574	21.7775
1019.741	2.80986
1019.907	23.88513
1020.074	-16.15583
1020.241	-11.94141
1020.407	47.07066
1020.574	4.91728
1020.74	23.88513
1020.907	53.39447
1021.073	-1.40491
1021.24	61.82655
1021.406	-14.04863
1021.573	42.8549
1021.739	-7.72688
1021.906	30.20817
1022.072	-56.18797
1022.239	-1.40491
1022.405	-11.94141
1022.571	-16.15583
1022.738	19.66988
1022.904	-33.01256
1023.07	89.23331
1023.237	-22.47729
1023.403	0.70246
1023.569	9.13219
1023.735	-43.54722
1023.902	-41.44034
1024.068	0.70246
1024.234	25.99279
1024.4	30.20817
1024.566	-16.15583
1024.732	19.66988
1024.898	-45.65407
1025.065	42.8549
1025.231	103.99236
1025.397	-58.29468
1025.563	55.50246
1025.729	-39.33343
1025.895	-26.69148
1026.061	53.39447
1026.227	34.42366
1026.392	-3.51226
1026.558	-20.37016
1026.724	9.13219
1026.89	13.34719
1027.056	55.50246
1027.222	-33.01256
1027.388	17.5623
1027.553	2.80986
1027.719	34.42366
1027.885	-24.5844
1028.051	-18.26301
1028.216	42.8549
1028.382	59.7185
1028.548	-37.2265
1028.713	59.7185
1028.879	57.61047
1029.045	9.13219
1029.21	-22.47729
1029.376	63.93463
1029.541	30.20817
1029.707	-26.69148
1029.873	70.25899
1030.038	4.91728
1030.204	-28.79853
1030.369	-30.90556
1030.534	-30.90556
1030.7	72.36716
1030.865	-28.79853
1031.031	-33.01256
1031.196	9.13219
1031.361	28.10047
1031.527	34.42366
1031.692	-11.94141
1031.857	38.63923
1032.023	11.23968
1032.188	57.61047
1032.353	59.7185
1032.518	0.70246
1032.684	61.82655
1032.849	38.63923
1033.014	38.63923
1033.179	13.34719
1033.344	38.63923
1033.509	-89.89218
1033.674	-14.04863
1033.839	-33.01256
1034.004	-26.69148
1034.17	-18.26301
1034.335	106.10089
1034.5	0.70246
1034.664	-37.2265
1034.829	7.02472
1034.994	-41.44034
1035.159	-7.72688
1035.324	-39.33343
1035.489	44.96277
1035.654	17.5623
1035.819	-5.61958
1035.984	-3.51226
1036.148	-56.18797
1036.313	63.93463
1036.478	49.17857
1036.643	51.28651
1036.807	-3.51226
1036.972	25.99279
1037.137	-33.01256
1037.301	55.50246
1037.466	40.74705
1037.631	23.88513
1037.795	17.5623
1037.96	36.53143
1038.124	9.13219
1038.289	44.96277
1038.454	59.7185
1038.618	-14.04863
1038.783	23.88513
1038.947	-30.90556
1039.111	28.10047
1039.276	-16.15583
1039.44	0.70246
1039.605	-3.51226
1039.769	44.96277
1039.933	32.3159
1040.098	30.20817
1040.262	4.91728
1040.426	78.6918
1040.591	-1.40491
1040.755	28.10047
1040.919	72.36716
1041.083	28.10047
1041.248	-5.61958
1041.412	-7.72688
1041.576	9.13219
1041.74	-37.2265
1041.904	-5.61958
1042.068	13.34719
1042.232	30.20817
1042.397	-22.47729
1042.561	-14.04863
1042.725	-22.47729
1042.889	-16.15583
1043.053	70.25899
1043.217	23.88513
1043.381	-5.61958
1043.544	21.7775
1043.708	0.70246
1043.872	-9.83416
1044.036	0.70246
1044.2	-47.7609
1044.364	42.8549
1044.528	-11.94141
1044.691	42.8549
1044.855	-14.04863
1045.019	0.70246
1045.183	17.5623
1045.346	42.8549
1045.51	51.28651
1045.674	-81.46674
1045.837	-24.5844
1046.001	25.99279
1046.165	4.91728
1046.328	-91.99847
1046.492	-37.2265
1046.655	-49.86771
1046.819	19.66988
1046.983	-62.50801
1047.146	21.7775
1047.31	93.45007
1047.473	9.13219
1047.636	-33.01256
1047.8	-11.94141
1047.963	25.99279
1048.127	36.53143
1048.29	-66.72124
