Data from mixed_try1_USB4F045381__25__00047.txt Node

Date: Thu Apr 03 19:34:29 EDT 2025
User: mmckonesweet
Spectrometer: USB4F04538
Trigger mode: 4
Integration Time (sec): 2.700000E-3
Scans to average: 1
Electric dark correction enabled: true
Nonlinearity correction enabled: true
Boxcar width: 0
XAxis mode: Wavelengths
Number of Pixels in Spectrum: 3648
>>>>>Begin Spectral Data<<<<<
345.52	29.68125
345.736	29.68125
345.952	29.68125
346.168	6.49786
346.384	17.0354
346.6	23.35822
346.816	12.82031
347.032	-1.93175
347.248	-16.68263
347.464	-33.53931
347.68	4.39042
347.896	-16.68263
348.112	78.16474
348.328	-4.03909
348.544	33.89672
348.76	-50.3944
348.975	-29.32529
349.191	-6.14641
349.407	-14.57544
349.623	-16.68263
349.839	-25.11117
350.055	8.60532
350.27	17.0354
350.486	-1.93175
350.702	143.53082
350.918	-4.03909
351.133	8.60532
351.349	12.82031
351.565	-75.67402
351.781	-37.75323
351.996	92.92297
352.212	-6.14641
352.428	-60.92802
352.644	84.48956
352.859	-12.46822
353.075	12.82031
353.291	-16.68263
353.506	48.65159
353.722	23.35822
353.938	21.25059
354.153	8.60532
354.369	52.86748
354.584	-8.2537
354.8	38.11228
355.016	-63.03467
355.231	-1.93175
355.447	19.14299
355.662	-52.50118
355.878	-23.00407
356.093	-6.14641
356.309	-8.2537
356.524	63.4076
356.74	-12.46822
356.955	52.86748
357.171	50.75953
357.386	14.92785
357.602	21.25059
357.817	-41.96706
358.033	-16.68263
358.248	-39.86016
358.464	42.32793
358.679	36.00449
358.895	-35.64629
359.11	-4.03909
359.325	-50.3944
359.541	50.75953
359.756	107.68229
359.972	-4.03909
360.187	-25.11117
360.402	25.46587
360.618	-50.3944
360.833	-8.2537
361.048	17.0354
361.264	12.82031
361.479	61.29953
361.694	0.17561
361.909	29.68125
362.125	25.46587
362.34	-54.60793
362.555	44.4358
362.77	50.75953
362.986	-33.53931
363.201	0.17561
363.416	-8.2537
363.631	-16.68263
363.847	46.54368
364.062	4.39042
364.277	25.46587
364.492	8.60532
364.707	44.4358
364.922	10.7128
365.138	59.19149
365.353	-16.68263
365.568	-25.11117
365.783	8.60532
365.998	4.39042
366.213	-31.43231
366.428	42.32793
366.643	36.00449
366.858	-48.28761
367.073	-8.2537
367.288	38.11228
367.503	21.25059
367.718	8.60532
367.933	10.7128
368.148	14.92785
368.363	-8.2537
368.578	19.14299
368.793	23.35822
369.008	-6.14641
369.223	-35.64629
369.438	-33.53931
369.653	-14.57544
369.868	-37.75323
370.083	33.89672
370.298	50.75953
370.513	-25.11117
370.728	42.32793
370.943	42.32793
371.157	63.4076
371.372	25.46587
371.587	21.25059
371.802	-33.53931
372.017	-16.68263
372.232	-14.57544
372.446	23.35822
372.661	4.39042
372.876	92.92297
373.091	14.92785
373.306	17.0354
373.52	61.29953
373.735	-23.00407
373.95	44.4358
374.165	36.00449
374.379	-39.86016
374.594	-52.50118
374.809	61.29953
375.023	118.22533
375.238	-33.53931
375.453	-16.68263
375.667	36.00449
375.882	0.17561
376.097	31.78897
376.311	50.75953
376.526	33.89672
376.741	33.89672
376.955	52.86748
377.17	-20.89695
377.384	-75.67402
377.599	0.17561
377.813	0.17561
378.028	-8.2537
378.242	21.25059
378.457	-16.68263
378.672	8.60532
378.886	4.39042
379.101	71.84011
379.315	-4.03909
379.53	25.46587
379.744	25.46587
379.958	-69.35446
380.173	-4.03909
380.387	17.0354
380.602	21.25059
380.816	17.0354
381.031	12.82031
381.245	25.46587
381.459	48.65159
381.674	0.17561
381.888	10.7128
382.103	4.39042
382.317	27.57355
382.531	46.54368
382.746	-1.93175
382.96	-1.93175
383.174	-4.03909
383.388	6.49786
383.603	-14.57544
383.817	-29.32529
384.031	-1.93175
384.246	8.60532
384.46	46.54368
384.674	105.57375
384.888	-10.36097
385.103	-14.57544
385.317	-8.2537
385.531	17.0354
385.745	-96.73754
385.959	-23.00407
386.174	-33.53931
386.388	-16.68263
386.602	-12.46822
386.816	-35.64629
387.03	42.32793
387.244	-25.11117
387.458	25.46587
387.672	-16.68263
387.887	-1.93175
388.101	2.283
388.315	40.22009
388.529	-6.14641
388.743	-52.50118
388.957	-37.75323
389.171	-16.68263
389.385	8.60532
389.599	65.5157
389.813	27.57355
390.027	67.62381
390.241	-56.71465
390.455	4.39042
390.669	61.29953
390.883	-54.60793
391.097	50.75953
391.311	-60.92802
391.525	-29.32529
391.738	-37.75323
391.952	27.57355
392.166	-33.53931
392.38	-44.07393
392.594	-4.03909
392.808	-20.89695
393.022	12.82031
393.236	40.22009
393.449	78.16474
393.663	-33.53931
393.877	44.4358
394.091	-16.68263
394.305	8.60532
394.518	84.48956
394.732	-20.89695
394.946	-16.68263
395.16	4.39042
395.373	-23.00407
395.587	33.89672
395.801	8.60532
396.015	17.0354
396.228	-41.96706
396.442	33.89672
396.656	25.46587
396.869	-56.71465
397.083	-6.14641
397.297	-27.21824
397.51	29.68125
397.724	-50.3944
397.938	59.19149
398.151	42.32793
398.365	12.82031
398.578	42.32793
398.792	-41.96706
399.005	63.4076
399.219	0.17561
399.433	-16.68263
399.646	42.32793
399.86	42.32793
400.073	-8.2537
400.287	101.35674
400.5	-46.18078
400.714	31.78897
400.927	-18.7898
401.141	-35.64629
401.354	86.59788
401.567	17.0354
401.781	-10.36097
401.994	12.82031
402.208	-41.96706
402.421	4.39042
402.635	128.76891
402.848	42.32793
403.061	50.75953
403.275	17.0354
403.488	10.7128
403.701	17.0354
403.915	50.75953
404.128	19.14299
404.341	12.82031
404.555	-37.75323
404.768	86.59788
404.981	40.22009
405.195	10.7128
405.408	-37.75323
405.621	21.25059
405.834	8.60532
406.048	69.73195
406.261	42.32793
406.474	46.54368
406.687	-14.57544
406.9	27.57355
407.114	17.0354
407.327	36.00449
407.54	-4.03909
407.753	-27.21824
407.966	65.5157
408.179	38.11228
408.392	-6.14641
408.605	-60.92802
408.819	-20.89695
409.032	14.92785
409.245	-4.03909
409.458	-4.03909
409.671	-20.89695
409.884	44.4358
410.097	23.35822
410.31	10.7128
410.523	-29.32529
410.736	-8.2537
410.949	-16.68263
411.162	57.08346
411.375	-4.03909
411.588	-33.53931
411.801	17.0354
412.014	8.60532
412.227	50.75953
412.44	-10.36097
412.653	42.32793
412.865	-14.57544
413.078	27.57355
413.291	-25.11117
413.504	10.7128
413.717	-75.67402
413.93	-16.68263
414.143	-29.32529
414.356	33.89672
414.568	-14.57544
414.781	-23.00407
414.994	8.60532
415.207	50.75953
415.42	52.86748
415.632	-16.68263
415.845	21.25059
416.058	63.4076
416.271	67.62381
416.483	0.17561
416.696	6.49786
416.909	59.19149
417.121	57.08346
417.334	25.46587
417.547	8.60532
417.759	-20.89695
417.972	36.00449
418.185	10.7128
418.397	-12.46822
418.61	69.73195
418.823	-23.00407
419.035	88.70622
419.248	12.82031
419.46	-23.00407
419.673	25.46587
419.885	61.29953
420.098	46.54368
420.311	25.46587
420.523	36.00449
420.736	-16.68263
420.948	-4.03909
421.161	-56.71465
421.373	8.60532
421.586	54.97546
421.798	101.35674
422.01	10.7128
422.223	12.82031
422.435	67.62381
422.648	33.89672
422.86	0.17561
423.073	14.92785
423.285	38.11228
423.497	17.0354
423.71	4.39042
423.922	33.89672
424.134	-16.68263
424.347	57.08346
424.559	-16.68263
424.771	27.57355
424.984	80.27299
425.196	-12.46822
425.408	23.35822
425.621	54.97546
425.833	2.283
426.045	12.82031
426.257	23.35822
426.47	36.00449
426.682	-29.32529
426.894	-67.24789
427.106	-4.03909
427.318	-23.00407
427.531	-33.53931
427.743	29.68125
427.955	27.57355
428.167	0.17561
428.379	4.39042
428.591	-18.7898
428.804	61.29953
429.016	-12.46822
429.228	40.22009
429.44	2.283
429.652	27.57355
429.864	36.00449
430.076	8.60532
430.288	17.0354
430.5	-58.82135
430.712	95.03138
430.924	-37.75323
431.136	42.32793
431.348	23.35822
431.56	76.05651
431.772	-16.68263
431.984	36.00449
432.196	27.57355
432.408	4.39042
432.62	0.17561
432.832	95.03138
433.044	-23.00407
433.256	67.62381
433.468	-8.2537
433.679	17.0354
433.891	61.29953
434.103	-35.64629
434.315	63.4076
434.527	71.84011
434.739	-4.03909
434.95	-18.7898
435.162	92.92297
435.374	19.14299
435.586	36.00449
435.798	-8.2537
436.009	-8.2537
436.221	-14.57544
436.433	2.283
436.645	97.13981
436.856	33.89672
437.068	-14.57544
437.28	25.46587
437.491	71.84011
437.703	29.68125
437.915	50.75953
438.126	8.60532
438.338	4.39042
438.55	52.86748
438.761	59.19149
438.973	-8.2537
439.184	17.0354
439.396	-1.93175
439.608	57.08346
439.819	27.57355
440.031	-8.2537
440.242	36.00449
440.454	10.7128
440.665	-23.00407
440.877	17.0354
441.088	44.4358
441.3	33.89672
441.511	38.11228
441.723	10.7128
441.934	42.32793
442.146	36.00449
442.357	84.48956
442.569	92.92297
442.78	-25.11117
442.991	-6.14641
443.203	31.78897
443.414	61.29953
443.626	10.7128
443.837	44.4358
444.048	-27.21824
444.26	17.0354
444.471	44.4358
444.682	92.92297
444.894	-8.2537
445.105	71.84011
445.316	103.46523
445.528	14.92785
445.739	78.16474
445.95	97.13981
446.161	12.82031
446.373	19.14299
446.584	25.46587
446.795	67.62381
447.006	54.97546
447.217	33.89672
447.429	38.11228
447.64	31.78897
447.851	42.32793
448.062	-23.00407
448.273	42.32793
448.484	135.09531
448.695	44.4358
448.907	-25.11117
449.118	12.82031
449.329	-41.96706
449.54	-1.93175
449.751	19.14299
449.962	67.62381
450.173	-25.11117
450.384	67.62381
450.595	52.86748
450.806	61.29953
451.017	50.75953
451.228	82.38126
451.439	46.54368
451.65	8.60532
451.861	42.32793
452.072	-33.53931
452.283	101.35674
452.494	23.35822
452.705	50.75953
452.915	38.11228
453.126	4.39042
453.337	73.9483
453.548	33.89672
453.759	109.79086
453.97	33.89672
454.181	42.32793
454.391	59.19149
454.602	118.22533
454.813	90.81458
455.024	36.00449
455.235	116.11668
455.445	80.27299
455.656	84.48956
455.867	86.59788
456.078	52.86748
456.288	36.00449
456.499	76.05651
456.71	33.89672
456.921	50.75953
457.131	76.05651
457.342	50.75953
457.553	33.89672
457.763	8.60532
457.974	-8.2537
458.184	109.79086
458.395	151.96666
458.606	107.68229
458.816	8.60532
459.027	80.27299
459.237	88.70622
459.448	33.89672
459.659	84.48956
459.869	103.46523
460.08	90.81458
460.29	92.92297
460.501	120.334
460.711	21.25059
460.922	120.334
461.132	141.42191
461.343	135.09531
461.553	65.5157
461.764	139.31302
461.974	63.4076
462.184	31.78897
462.395	103.46523
462.605	95.03138
462.816	67.62381
463.026	73.9483
463.236	78.16474
463.447	97.13981
463.657	61.29953
463.867	196.26033
464.078	42.32793
464.288	126.66015
464.498	118.22533
464.709	160.40285
464.919	154.07568
465.129	61.29953
465.339	116.11668
465.55	86.59788
465.76	143.53082
465.97	162.51195
466.18	168.83937
466.391	29.68125
466.601	80.27299
466.811	118.22533
467.021	173.05775
467.231	179.38548
467.441	160.40285
467.651	168.83937
467.862	255.33235
468.072	67.62381
468.282	164.62107
468.492	103.46523
468.702	170.94855
468.912	181.49477
469.122	208.91732
469.332	187.82274
469.542	135.09531
469.752	208.91732
469.962	194.1509
470.172	215.24608
470.382	194.1509
470.592	255.33235
470.802	202.58873
471.012	189.93211
471.222	202.58873
471.432	217.35571
471.642	232.12365
471.852	249.00247
472.062	303.86702
472.272	354.52214
472.482	236.34324
472.691	362.96564
472.901	362.96564
473.111	236.34324
473.321	303.86702
473.531	373.52039
473.741	278.54336
473.95	375.63139
474.16	320.75093
474.37	407.29842
474.58	417.85491
474.79	462.19651
474.999	415.74358
475.209	438.9691
475.419	481.20214
475.628	438.9691
475.838	445.30366
476.048	493.87323
476.258	519.21698
476.467	527.66536
476.677	557.23644
476.886	709.35615
477.096	599.48543
477.306	597.37286
477.515	593.14775
477.725	675.54638
477.935	658.64259
478.144	660.75553
478.354	705.12977
478.563	738.94201
478.773	722.03554
478.982	734.71533
479.192	760.07603
479.401	747.39549
479.611	804.46074
479.82	850.96346
480.03	948.20959
480.239	996.83854
480.449	836.16667
480.658	1132.17054
480.868	916.49708
481.077	1195.61413
481.287	1030.6694
481.496	1185.03996
481.705	1108.90884
481.915	1210.41811
482.124	1206.18839
482.333	1303.47502
482.543	1246.3713
482.752	1301.36004
482.961	1233.68184
483.171	1295.01511
483.38	1335.19997
483.589	1364.81025
483.799	1400.76588
484.008	1417.68625
484.217	1419.8013
484.426	1656.68309
484.636	1438.83675
484.845	1639.76359
485.054	1616.49904
485.263	1563.62418
485.472	1658.79801
485.682	1876.61691
485.891	1876.61691
486.1	1893.53295
486.309	1872.38785
486.518	1825.86688
486.727	1889.30397
486.936	2003.47836
487.146	1999.25
487.355	2088.03996
487.564	2071.12854
487.773	2159.90808
487.982	1995.02161
488.191	2265.57922
488.4	2284.59767
488.609	2276.14511
488.818	2293.05007
489.027	2293.05007
489.236	2588.78038
489.445	2405.02969
489.654	2453.61565
489.863	2599.33811
490.072	2443.05397
490.281	2432.49201
490.49	2645.78848
490.698	2620.45265
490.907	2588.78038
491.116	2742.89219
491.325	2704.89834
491.534	2913.80987
491.743	2806.20565
491.952	2846.2978
492.16	2858.95742
492.369	3082.52374
492.578	2991.85208
492.787	3025.5937
492.996	2989.7431
493.204	3019.26744
493.413	3103.60604
493.622	3413.32587
493.831	3230.06608
494.039	3244.8159
494.248	3177.38153
494.457	3417.53719
494.665	3299.59371
494.874	3440.69818
495.083	3423.85403
495.291	3585.93078
495.5	3421.74844
495.709	3514.37776
495.917	3558.5748
496.126	3491.22371
496.335	3548.05243
496.543	3766.8207
496.752	3760.51298
496.96	3869.82177
497.169	3619.59536
497.377	3882.43088
497.586	3752.10241
497.794	3853.00851
498.003	3901.34318
498.211	4107.1706
498.42	3939.16291
498.628	3981.17714
498.837	3972.77494
499.045	4205.81308
499.254	4075.67921
499.462	4298.11678
499.671	4014.78265
499.879	4270.84954
500.087	4423.91829
500.296	4371.51049
500.504	4314.89482
500.713	4381.99314
500.921	4449.06918
501.129	4340.05929
501.338	4342.15618
501.546	4530.78772
501.754	4379.89665
501.962	4472.12139
502.171	4581.05933
502.379	4748.53835
502.587	4486.7896
502.795	4798.7539
503.004	4484.6942
503.212	4631.31811
503.42	4564.30355
503.628	4719.23991
503.837	4851.04785
504.045	4853.13931
504.253	4811.30575
504.461	5035.00869
504.669	4692.03026
504.877	4871.96144
505.085	4894.96374
505.294	4874.05267
505.502	4993.21505
505.71	5300.18165
505.918	4986.94521
506.126	5204.17814
506.334	5133.1873
506.542	5166.5981
506.75	5099.77054
506.958	5118.5682
507.166	5112.30252
507.374	5533.72191
507.582	5471.19539
507.79	5179.12562
507.998	5208.35323
508.206	5658.71133
508.414	5218.79056
508.622	5354.4226
508.83	5404.4771
509.037	5519.13428
509.245	5222.96532
509.453	5537.88959
509.661	5631.63749
509.869	5550.39207
510.077	5550.39207
510.285	5642.05098
510.492	5769.04801
510.7	5673.2879
510.908	5594.14406
511.116	5723.25593
511.324	5677.45242
511.531	5800.26334
511.739	5669.12328
511.947	5904.27608
512.155	5712.84704
512.362	5866.83829
512.57	5831.47336
512.778	5945.86466
512.985	5787.77785
513.193	6041.48261
513.401	6226.34121
513.608	6072.6516
513.816	6093.42799
514.024	6166.12682
514.231	6078.88476
514.439	6176.51002
514.646	6143.28172
514.854	6442.12064
515.061	6193.12192
515.269	6201.42731
515.477	6307.28811
515.684	6458.70862
515.892	6298.9875
516.099	6549.91591
516.307	6348.78554
516.514	6626.57827
516.722	6481.51465
516.929	6551.98828
517.136	6541.62619
517.344	6603.79006
517.551	6522.97297
517.759	6655.57741
517.966	6599.64644
518.173	6641.0784
518.381	6680.43023
518.588	6767.38907
518.796	6738.40728
519.003	6928.77723
519.21	6705.27974
519.418	7015.62145
519.625	6674.21733
519.832	7143.74767
520.039	6891.54607
520.247	6972.20431
520.454	7110.69106
520.661	7284.17488
520.868	7162.3395
521.076	7209.84381
521.283	6858.44555
521.49	7102.42602
521.697	6982.54262
521.904	7352.28666
522.112	7178.86407
522.319	7358.47746
522.526	7096.227
522.733	7447.19068
522.94	7434.8145
523.147	7333.71309
523.354	7294.49638
523.561	7461.62857
523.768	7377.04867
523.975	7548.2337
524.183	7339.90447
524.39	7774.87831
524.597	7535.86386
524.804	7980.69906
525.011	7756.34426
525.218	7684.2512
525.425	7659.52764
525.632	7814.0002
525.838	7929.26321
526.045	7995.0988
526.252	7853.11457
526.459	8054.74428
526.666	8155.48598
526.873	8151.37501
527.08	8124.6518
527.287	8176.0396
527.494	7791.35161
527.701	8356.82621
527.907	8028.00876
528.114	8410.21148
528.321	8058.85713
528.528	8293.15737
528.735	8387.627
528.941	8124.6518
529.148	8289.04906
529.355	8408.15844
529.562	8054.74428
529.768	8373.25384
529.975	8182.20529
530.182	8354.77267
530.388	8190.42594
530.595	8527.20297
530.802	8317.8056
531.008	8484.10806
531.215	8521.04707
531.422	8904.44525
531.628	8518.99507
531.835	8781.49967
532.042	8873.71493
532.248	9012.99372
532.455	8826.58725
532.661	9135.81948
532.868	9019.1365
533.074	9012.99372
533.281	9049.84801
533.487	9289.2651
533.694	9031.42157
533.9	9465.10094
534.107	8967.94189
534.313	9113.30608
534.52	8890.10493
534.726	9463.05703
534.933	9107.1657
535.139	9225.85242
535.345	9119.4463
535.552	9293.35569
535.758	9403.77659
535.965	9610.17782
536.171	9416.04263
536.377	9563.18983
536.584	9463.05703
536.79	9503.93219
536.996	9567.27607
537.203	9354.70656
537.409	9487.58289
537.615	9518.23698
537.821	9620.3915
538.028	9710.25519
538.234	9538.67104
538.44	9685.74988
538.646	9610.17782
538.853	9861.32299
539.059	9606.09224
539.265	9830.70778
539.471	9973.55036
539.677	10087.77329
539.883	10004.15019
540.09	10091.85186
540.296	10114.28297
540.502	10318.12552
540.708	10126.5174
540.914	10328.31409
541.12	10010.26976
541.326	10332.38943
541.532	10448.51435
541.738	10140.79027
541.944	10318.12552
542.15	10570.70582
542.356	10438.32965
542.562	10379.25198
542.768	10360.91529
542.974	10650.10604
543.18	10641.9633
543.386	10515.72532
543.592	10682.67508
543.798	10534.05317
544.004	10957.35527
544.21	10902.43615
544.415	10562.56114
544.621	10945.15174
544.827	10464.8092
545.033	10875.99065
545.239	10823.0938
545.445	11052.93574
545.651	10698.95843
545.856	10926.84567
546.062	10916.67524
546.268	11004.13176
546.474	10910.57284
546.679	10922.77753
546.885	10717.27628
547.091	11002.09812
547.297	10611.42624
547.502	11085.46823
547.708	10865.81879
547.914	11097.6672
548.119	11239.96014
548.325	11246.05726
548.531	10833.26688
548.736	11181.01648
548.942	10922.77753
549.147	11205.40802
549.353	11272.47705
549.559	11617.81281
549.764	11130.19588
549.97	11386.2658
550.175	11467.52447
550.381	11962.88466
550.586	11162.72183
550.792	11696.99854
550.997	11201.34287
551.203	11404.55036
551.408	11668.57447
551.614	11812.70734
551.819	11790.37977
552.025	11912.15414
552.23	11889.83109
552.435	11761.96134
552.641	12088.67482
552.846	12001.43648
553.052	11855.32986
553.257	12027.81239
553.462	11993.32055
553.668	12110.98931
553.873	11725.42087
554.078	12250.94134
554.283	12082.58889
554.489	12188.06869
554.694	12198.20992
554.899	12206.32276
555.105	12287.44486
555.31	12153.58715
555.515	12291.50066
555.72	12110.98931
555.925	12155.61553
556.131	12506.41907
556.336	12338.1404
556.541	12538.85313
556.746	12334.08491
556.951	12546.96139
557.156	12218.49181
557.361	12388.83161
557.567	12682.76006
557.772	12670.6001
557.977	12703.0262
558.182	13035.3114
558.387	12713.15905
558.592	12836.76827
558.797	12844.87306
559.002	12745.58318
559.207	12528.71766
559.412	12861.08239
559.617	12936.04608
559.822	13041.38847
560.027	12857.03009
560.232	12775.97948
560.437	12650.33301
560.642	12830.68961
560.847	12703.0262
561.051	13000.87379
561.256	12613.85073
561.461	13181.14933
561.666	12867.1608
561.871	13023.15711
562.076	12822.58466
562.281	13116.3355
562.485	13004.92534
562.69	13000.87379
562.895	12968.46059
563.1	13258.10974
563.305	12800.2956
563.509	13002.89957
563.714	13069.74758
563.919	13223.68088
564.123	13357.33898
564.328	13156.8447
564.533	13166.97171
564.737	13019.10564
564.942	13460.60801
565.147	13614.481
565.351	13274.31113
565.556	13298.61269
565.761	13521.34984
565.965	13679.2636
566.17	13146.71757
566.374	13733.92133
566.579	13584.11296
566.784	13527.42384
566.988	13576.01468
567.193	13573.99011
567.397	13474.78141
567.602	13606.38293
567.806	13347.214
568.011	13910.02576
568.215	13719.75103
568.42	13665.0927
568.624	13596.26027
568.828	13665.0927
569.033	13640.79934
569.237	14250.03482
569.442	13922.17011
569.646	13986.93838
569.85	14280.38986
570.055	14094.20528
570.259	14175.15722
570.463	14549.52168
570.668	13752.14007
570.872	14104.32446
571.076	14100.27679
571.281	14280.38986
571.485	14005.15399
571.689	14084.08604
571.893	14027.41724
572.098	14377.5233
572.302	14339.07511
572.506	14434.18274
572.71	14197.41841
572.914	14592.01393
573.119	14225.75049
573.323	14104.32446
573.527	14484.77054
573.731	14674.97358
573.935	14357.28749
574.139	14420.01799
574.343	14250.03482
574.547	14256.10586
574.751	14602.13106
574.955	14579.87334
575.159	14703.30087
575.364	14703.30087
575.568	14764.00164
575.772	14877.30794
575.976	14577.84991
576.18	14697.23075
576.383	14755.90825
576.587	14960.2632
576.791	14658.78646
576.995	14822.67838
577.199	14507.0289
577.403	14956.21662
577.607	15239.47522
577.811	15067.49712
578.015	14958.23991
578.219	15109.98586
578.422	15184.84688
578.626	15116.05567
578.83	14911.70412
579.034	15235.42867
579.238	15075.59022
579.442	15544.99313
579.645	15146.40474
579.849	15192.93996
580.053	15201.03305
580.257	15273.87088
580.46	14887.42448
580.664	15437.75722
580.868	15245.54504
581.071	15358.8487
581.275	15253.63813
581.479	15377.0583
581.682	15269.82433
581.886	15136.28839
582.09	15399.31453
582.293	15601.6468
582.497	15433.71062
582.7	15767.56488
582.904	15423.5941
583.107	15508.5732
583.311	15373.01172
583.515	15650.20757
583.718	15468.10684
583.922	15799.9399
584.125	15498.45659
584.329	15662.34784
584.532	15783.75236
584.735	15799.9399
584.939	15899.09021
585.142	15945.63117
585.346	15460.0136
585.549	15631.99722
585.753	15520.71315
585.956	16060.97489
586.159	15941.5841
586.363	16427.27658
586.566	16427.27658
586.769	16230.96412
586.973	15998.24352
587.176	16494.06747
587.379	15935.51351
587.582	16251.20172
587.786	16204.65551
587.989	16411.08518
588.192	16164.18127
588.395	16463.7077
588.599	16267.39193
588.802	16741.01186
589.005	16060.97489
589.208	16504.1875
589.411	16303.82031
589.615	16520.37966
589.818	16465.73167
590.021	16779.47351
590.224	16512.28356
590.427	16734.93905
590.63	16943.45167
590.833	16757.20613
591.036	16686.35732
591.239	16931.30456
591.442	16686.35732
591.645	17030.50872
591.848	16880.69262
592.051	16973.81985
592.254	16647.89773
592.457	16676.23629
592.66	16791.61947
592.863	17174.26517
593.066	17174.26517
593.269	16807.81423
593.472	16979.89355
593.675	17176.29001
593.878	17170.2155
594.081	17441.56961
594.284	17386.88942
594.486	17362.58784
594.689	17453.72107
594.892	17550.93684
595.095	17471.94847
595.298	17500.30272
595.5	17275.51073
595.703	17435.49392
595.906	17435.49392
596.109	17354.48741
596.311	17344.36194
596.514	17427.39305
596.717	17348.41212
596.92	17415.24183
597.122	17344.36194
597.325	17498.27739
597.528	17394.99005
597.73	17854.78466
597.933	17316.01102
598.136	17743.36505
598.338	17698.80008
598.541	17901.3814
598.743	17571.19105
598.946	17380.81399
599.148	17597.52201
599.351	17506.37871
599.554	17271.46077
599.756	17885.17363
599.959	17978.37136
600.161	18120.20839
600.363	18016.86825
600.566	18043.20897
600.768	17931.77157
600.971	17939.87574
601.173	17962.16252
601.376	18116.15566
601.578	18290.43635
601.78	17992.55427
601.983	17962.16252
602.185	18110.07659
602.388	18112.10294
602.59	18211.39871
602.792	17988.50199
602.995	18128.3139
603.197	18099.94488
603.399	18395.82871
603.601	18140.47227
603.804	18399.88247
604.006	18101.97122
604.208	18233.69081
604.41	18337.05095
604.613	18213.42525
604.815	18215.45178
605.017	18456.63665
605.219	18480.96078
605.421	18478.93375
605.623	18410.01692
605.826	18150.60434
606.028	18079.68173
606.23	18245.85032
606.432	18235.71738
606.634	18482.98782
606.836	18262.06321
607.038	18405.96313
607.24	18197.21306
607.442	18517.44802
607.644	18294.48972
607.846	18440.42086
608.048	18353.26519
608.25	18920.91903
608.452	18699.90304
608.654	18854.00094
608.856	18691.79325
609.058	18906.72391
609.26	18464.74463
609.462	18894.55683
609.664	18649.21792
609.866	18929.03061
610.067	18699.90304
610.269	18918.89114
610.471	18513.39382
610.673	18752.61817
610.875	19024.3465
611.077	19083.1629
611.278	18781.00434
611.48	18843.86221
611.682	18515.42092
611.884	19150.09606
612.085	18943.22603
612.287	18783.03195
612.489	18918.89114
612.69	19091.27577
612.892	18862.11199
613.094	19186.60694
613.295	18691.79325
613.497	18957.42164
613.699	18799.25301
613.9	18752.61817
614.102	18618.80803
614.304	18766.81116
614.505	18856.02869
614.707	18961.47757
614.908	19030.4308
615.11	19308.31945
615.311	19058.82467
615.513	18951.33778
615.714	18734.37032
615.916	18884.41771
616.117	18829.66816
616.319	18691.79325
616.52	18590.42625
616.722	18659.35475
616.923	18632.9992
617.124	18872.25089
617.326	18282.32967
617.527	19024.3465
617.729	19267.74697
617.93	19223.11914
618.131	19174.4365
618.333	19068.96553
618.534	19131.84112
618.735	19350.92233
618.937	18655.30001
619.138	19095.33224
619.339	19180.5217
619.54	19283.97576
619.742	19000.00968
619.943	18931.05851
620.144	18829.66816
620.345	19375.26765
620.546	19042.5995
620.748	19430.04681
620.949	19081.13469
621.15	19336.72117
621.351	19190.66378
621.552	19399.61357
621.753	19186.60694
621.954	19525.41034
622.155	19062.881
622.356	19714.13553
622.558	19425.98899
622.759	19314.40546
622.96	19190.66378
623.161	19160.23784
623.362	19395.55588
623.563	19673.54642
623.764	19075.05009
623.965	19263.68981
624.166	19523.38123
624.366	19235.29017
624.567	19434.10465
624.768	19835.91293
624.969	19310.34812
625.17	19288.033
625.371	19551.78911
625.572	19606.57804
625.773	19436.13357
625.973	19649.19375
626.174	19507.14853
626.375	19639.04698
626.576	19434.10465
626.777	19389.46937
626.977	19606.57804
627.178	19634.98831
627.379	19754.72632
627.58	19565.99335
627.78	19835.91293
627.981	19699.92915
628.182	19525.41034
628.382	19783.14087
628.583	19527.43945
628.784	19795.31879
628.984	19273.83273
629.185	19634.98831
629.386	19119.67135
629.586	19878.5386
629.787	19693.84076
629.987	19541.64334
630.188	19592.37321
630.388	19405.70014
630.589	19328.60631
630.79	19870.41928
630.99	19470.62591
631.191	19965.8255
631.391	19572.08095
631.591	19555.84744
631.792	19746.60803
631.992	19982.06578
632.193	20191.18344
632.393	19978.00568
632.594	19746.60803
632.794	19604.54876
632.994	19641.07633
633.195	19823.73451
633.395	19923.19604
633.595	19850.12128
633.796	19896.8073
633.996	19860.27023
634.196	19874.47893
634.397	20260.22236
634.597	20040.93905
634.797	20434.87191
634.997	20183.06153
635.198	19898.83718
635.398	20083.57363
635.598	20550.64509
635.798	20276.46752
635.998	19858.24043
636.199	20026.72794
636.399	20187.12248
636.599	19588.31472
636.799	20404.40755
636.999	20034.84855
637.199	20436.9029
637.399	20412.53128
637.599	20392.22206
637.799	20394.25297
637.999	20471.43039
638.199	20258.19174
638.399	20337.38927
638.599	20223.67174
638.799	20784.26382
638.999	20369.88241
639.199	20440.9649
639.399	20162.75706
639.599	20418.62413
639.799	20162.75706
639.999	20138.39224
640.199	20398.31479
640.399	20410.50034
640.599	19746.60803
640.799	20670.49478
640.998	20473.46146
641.198	20290.68226
641.398	20355.66653
641.598	20908.20559
641.798	20948.84558
641.997	20786.29552
642.197	20457.21304
642.397	20816.77165
642.597	20560.80128
642.796	20195.24442
642.996	20002.36651
643.196	20459.24408
643.395	20572.98884
643.595	20566.89504
643.795	20713.15664
643.994	20558.77003
644.194	20765.97863
644.394	21034.19491
644.593	20477.5236
644.793	20786.29552
644.992	20904.14168
645.192	20810.67635
645.392	20879.75858
645.591	20670.49478
645.791	20733.47246
645.99	20335.35848
646.19	20640.02314
646.389	20688.77821
646.589	20784.26382
646.788	20975.26246
646.987	20542.52021
647.187	21022.00171
647.386	20993.55147
647.586	21109.38959
647.785	21026.06609
647.984	20800.5176
648.184	21070.77541
648.383	21247.59976
648.582	20839.12139
648.782	21310.61354
648.981	20902.10973
649.18	21176.45983
649.38	20932.58939
649.579	21137.84309
649.778	21046.38826
649.977	21204.9152
650.177	20707.06198
650.376	20969.16619
650.575	20843.18504
650.774	20914.30148
650.973	21243.53448
651.173	21347.20397
651.372	21286.22065
651.571	21007.77649
651.77	21015.90516
651.969	21725.38057
652.168	21239.46923
652.367	21251.66504
652.566	20938.68543
652.765	21271.99173
652.964	21526.10916
653.163	21322.81021
653.362	21302.48251
653.561	21176.45983
653.76	21324.843
653.959	21461.04916
654.158	21335.00702
654.357	21046.38826
654.556	20932.58939
654.755	21589.13991
654.954	21180.52483
655.153	21186.62237
655.352	21676.57592
655.551	21298.41702
655.749	21731.48131
655.948	21546.44125
656.147	21884.0111
656.346	22001.9823
656.545	21597.27319
656.743	21379.72989
656.942	21328.90859
657.141	21574.90683
657.34	21211.01289
657.538	21194.75248
657.737	21373.6312
657.936	21942.9951
658.135	21631.84031
658.333	21625.74015
658.532	21786.38953
658.731	21637.94051
658.929	21404.125
659.128	21633.87371
659.326	21274.02442
659.525	21991.81186
659.724	21282.15522
659.922	21631.84031
660.121	21450.8839
660.319	21326.87579
660.518	21381.76279
660.716	21766.05282
660.915	21843.33437
661.113	21713.1792
661.312	21375.66409
661.51	22054.87009
661.709	21326.87579
661.907	21635.90711
662.105	21581.0067
662.304	21890.11275
662.502	21607.43987
662.701	21473.2476
662.899	21802.65917
663.097	21770.12013
663.296	21593.20654
663.494	21731.48131
663.692	21672.50897
663.891	21900.28223
664.089	21379.72989
664.287	21694.8774
664.485	21227.27355
664.684	21558.64069
664.882	21806.72662
665.08	21792.49061
665.278	21778.2548
665.476	21896.21442
665.675	21839.26678
665.873	21936.89315
666.071	21682.67638
666.269	21922.65542
666.467	21676.57592
666.665	21977.57341
666.863	21469.18144
667.061	22020.28932
667.259	21603.37319
667.457	21570.84027
667.655	21532.20875
667.853	21825.03034
668.051	21674.54245
668.249	21611.50657
668.447	21473.2476
668.645	21556.60744
668.843	21434.61969
669.041	21725.38057
669.239	21420.38872
669.437	21776.22112
669.635	21644.04075
669.833	21383.7957
670.031	21115.4867
670.229	21294.35155
670.426	21656.24132
670.624	21574.90683
670.822	21271.99173
671.02	21585.0733
671.218	21623.70677
671.415	21603.37319
671.613	21332.9742
671.811	21857.57105
672.009	21682.67638
672.206	21703.01149
672.404	21700.97797
672.602	21930.79125
672.799	21920.62148
672.997	22115.89763
673.195	21802.65917
673.392	21833.16542
673.59	21812.82783
673.788	21650.14102
673.985	21617.60665
674.183	21288.25337
674.38	21808.76035
674.578	21513.9101
674.775	21613.53993
674.973	21540.34158
675.17	21818.92906
675.368	21761.98552
675.565	21670.4755
675.763	21733.51489
675.96	21241.50185
676.158	21395.99323
676.355	20928.52538
676.553	21784.35584
676.75	21359.40107
676.947	21662.34166
677.145	21162.23244
677.342	21965.36917
677.539	21393.9603
677.737	21780.28847
677.934	21310.61354
678.131	21650.14102
678.329	21698.94444
678.526	21452.91694
678.723	21379.72989
678.92	21705.04503
679.118	21845.36817
679.315	21877.90949
679.512	21609.47322
679.709	21999.9482
679.906	21300.44977
680.104	21302.48251
680.301	21589.13991
680.498	21011.84081
680.695	21178.49233
680.892	21353.3025
681.089	21154.10259
681.286	21341.10548
681.483	21143.94037
681.68	21263.86101
681.877	20869.59913
682.075	21225.24096
682.272	20991.51934
682.469	21198.81755
682.665	21190.68741
682.862	21076.87229
683.059	21135.81067
683.256	20975.26246
683.453	21237.4366
683.65	20837.08958
683.847	21145.97281
684.044	21040.29157
684.241	20698.93581
684.438	21148.00525
684.635	20652.21168
684.831	20883.82239
685.028	21107.35723
685.225	21156.13504
685.422	20912.26952
685.619	20865.53538
685.815	20542.52021
686.012	21274.02442
686.209	20926.49338
686.405	21135.81067
686.602	20967.13411
686.799	21164.26491
686.996	21515.94327
687.192	21450.8839
687.389	21115.4867
687.586	21302.48251
687.782	21265.89368
687.979	21314.67908
688.175	20674.55773
688.372	21162.23244
688.568	20948.84558
688.765	20959.00583
688.962	20855.37607
689.158	20885.8543
689.355	20942.74948
689.551	20548.61386
689.748	20601.42708
689.944	20613.61515
690.14	20524.23948
690.337	21034.19491
690.533	21135.81067
690.73	20713.15664
690.926	20969.16619
691.123	20534.3954
691.319	20603.45841
691.515	20983.39087
691.712	20408.46941
691.908	20410.50034
692.104	20589.23916
692.301	20365.82071
692.497	20436.9029
692.693	20449.08894
692.889	20461.27512
693.086	20867.56725
693.282	20442.9959
693.478	20936.65341
693.674	20294.74365
693.87	20735.50406
694.067	20753.78869
694.263	20603.45841
694.459	20447.05792
694.655	20542.52021
694.851	20337.38927
695.047	20455.18201
695.243	20345.51245
695.439	20528.30184
695.635	20583.14526
695.831	20713.15664
696.027	20343.48165
696.224	20442.9959
696.42	20201.33592
696.615	20280.52886
696.811	20030.78823
697.007	20179.0006
697.203	20333.3277
697.399	20436.9029
697.595	20473.46146
697.791	20770.04197
697.987	20331.29692
698.183	20532.36421
698.379	20142.453
698.575	20400.3457
698.77	20185.092
698.966	20503.92796
699.162	20495.80347
699.358	20820.8352
699.554	20148.54418
699.749	20499.8657
699.945	20392.22206
700.141	20388.16027
700.337	20321.1431
700.532	20503.92796
700.728	20493.77235
700.924	20566.89504
701.119	20518.14598
701.315	20191.18344
701.511	19628.90032
701.706	19781.11123
701.902	20073.42237
702.097	20061.241
702.293	19931.31579
702.489	20077.48286
702.684	19969.88554
702.88	20258.19174
703.075	19821.70479
703.271	20073.42237
703.466	20028.75808
703.662	20250.06928
703.857	19770.96311
704.053	19947.5555
704.248	19921.16611
704.443	20302.86648
704.639	20103.87646
704.834	20093.72499
705.03	19969.88554
705.225	20061.241
705.42	20071.39213
705.616	20158.69621
705.811	19921.16611
706.006	20213.51903
706.202	19819.67507
706.397	19894.77743
706.592	19975.97564
706.787	19835.91293
706.983	19917.10627
707.178	20215.54956
707.373	20036.87871
707.568	19592.37321
707.763	19559.90579
707.959	19795.31879
708.154	19758.78549
708.349	19992.21609
708.544	19809.52655
708.739	19568.02255
708.934	19529.46856
709.129	19844.03197
709.324	19565.99335
709.519	19992.21609
709.714	19632.95897
709.909	19442.22037
710.104	19505.11946
710.299	19614.69517
710.494	19687.75242
710.689	19693.84076
710.884	19888.68784
711.079	20179.0006
711.274	19896.8073
711.469	19967.85552
711.664	19791.25947
711.859	19537.58507
712.054	19641.07633
712.249	19415.84452
712.443	19361.06614
712.638	19738.4898
712.833	19046.65577
713.028	19375.26765
713.223	19127.78452
713.417	19393.52704
713.612	19196.74908
713.807	19760.81508
714.002	19900.86706
714.196	20020.63752
714.391	19689.78186
714.586	20122.14937
714.78	19929.28585
714.975	19980.03573
715.17	19813.58595
715.364	19809.52655
715.559	19673.54642
715.754	19671.517
715.948	19275.86133
716.143	19497.00322
716.337	19052.7402
716.532	19706.01757
716.726	19775.02234
716.921	20126.21007
717.115	20049.05978
717.31	19823.73451
717.504	19334.69245
717.699	19730.37165
717.893	19265.71839
718.088	19580.1978
718.282	19539.6142
718.476	19673.54642
718.671	19456.42304
718.865	19521.35213
719.059	19146.03938
719.254	19085.19111
719.448	18866.16754
719.642	19395.55588
719.837	18781.00434
720.031	19511.20668
720.225	18872.25089
720.419	18973.64545
720.614	18722.20527
720.808	18995.9536
721.002	18661.38213
721.196	18918.89114
721.39	19251.51843
721.585	19192.69221
721.779	19137.92607
721.973	19253.54699
722.167	18781.00434
722.361	18712.06783
722.555	18545.82785
722.749	18628.94456
722.943	18438.39391
723.137	18341.10449
723.331	18375.56016
723.525	18513.39382
723.719	18712.06783
723.913	18663.40951
724.107	18653.27264
724.301	18673.54647
724.495	18393.80184
724.689	18685.71096
724.883	18231.66423
725.077	18335.02419
725.271	18886.44553
725.465	18665.43689
725.659	18870.2231
725.853	18890.50117
726.046	18728.28778
726.24	18667.46428
726.434	18239.77055
726.628	19073.0219
726.822	18091.83958
727.015	18444.47479
727.209	18474.8797
727.403	19060.85283
727.596	18734.37032
727.79	18969.58947
727.984	18821.55737
728.177	18965.53351
728.371	18849.94543
728.565	18503.25839
728.758	18349.21161
728.952	18691.79325
729.146	18527.58359
729.339	19026.3746
729.533	18728.28778
729.726	18821.55737
729.92	18959.44961
730.113	18870.2231
730.307	18813.44664
730.5	18789.11482
730.694	18835.7513
730.887	18736.39784
731.081	19109.52998
731.274	18681.65611
731.468	18418.12456
731.661	18523.52935
731.854	18539.74639
732.048	18454.60966
732.241	18085.76064
732.435	18507.31255
732.628	18401.90935
732.821	18328.94392
733.014	18576.23564
733.208	18515.42092
733.401	18541.77354
733.594	18566.09962
733.788	18361.3724
733.981	18663.40951
734.174	18553.93651
734.367	18438.39391
734.56	18748.56306
734.754	18797.22536
734.947	18675.57388
735.14	18262.06321
735.333	18389.74811
735.526	18318.81022
735.719	18341.10449
735.912	17982.4236
736.105	17925.69347
736.298	18128.3139
736.491	17913.53737
736.684	18201.26609
736.877	18091.83958
737.07	18513.39382
737.263	18470.82566
737.456	18168.84231
737.649	17984.44973
737.842	17929.74553
738.035	18156.68363
738.228	18247.87692
738.421	18016.86825
738.614	18091.83958
738.807	18371.50649
739	18091.83958
739.192	18199.23957
739.385	18482.98782
739.578	18296.5164
739.771	18316.78349
739.964	17964.18861
740.156	18525.55647
740.349	18051.31392
740.542	18000.65887
740.735	17972.29302
740.927	18020.92063
741.12	18272.19639
741.313	18227.6111
741.505	18024.97302
741.698	17893.27749
741.891	17816.29308
742.083	18087.78695
742.276	18061.4452
742.468	17907.45937
742.661	17688.6719
742.854	17877.06983
743.046	17745.39077
743.239	17704.87702
743.431	17852.75876
743.624	17710.954
743.816	17508.40404
744.009	17854.78466
744.201	17706.90268
744.393	17674.49259
744.586	17534.73371
744.778	17798.06066
744.971	17698.80008
745.163	17631.95563
745.355	17579.29283
745.548	17771.72543
745.74	17638.03225
745.932	17615.75146
746.125	17789.95745
746.317	17625.87904
746.509	17638.03225
746.702	17514.48007
746.894	17536.75909
747.086	17443.59485
747.278	17791.98325
747.471	17540.80986
747.663	17856.81057
747.855	17652.21114
748.047	17767.67391
748.239	17536.75909
748.431	17423.34263
748.623	17467.89792
748.815	17318.03607
749.008	17761.59665
749.2	17585.36919
749.392	17658.28786
749.584	17277.53572
749.776	17798.06066
749.968	17755.51942
750.16	17662.33902
750.352	17836.55165
750.544	17678.5438
750.736	17459.79684
750.928	17040.63196
751.12	17409.16626
751.311	17168.19067
751.503	17297.78574
751.695	17696.77443
751.887	17437.51915
752.079	17773.7512
752.271	17380.81399
752.463	17160.09137
752.654	17064.928
752.846	17435.49392
753.038	17162.11619
753.23	17305.88584
753.421	17285.63569
753.613	17366.63807
753.805	17451.69582
753.997	17277.53572
754.188	17330.1864
754.38	17064.928
754.572	17311.96094
754.763	17232.98671
754.955	17117.5708
755.146	17226.91195
755.338	16866.52157
755.53	16959.64795
755.721	17162.11619
755.913	17330.1864
756.104	17356.51251
756.296	17297.78574
756.487	16809.83859
756.679	17330.1864
756.87	17113.52129
757.062	17111.49654
757.253	16854.37505
757.445	16811.86295
757.636	16346.32085
757.827	16672.1879
758.019	16791.61947
758.21	16965.72161
758.401	16730.89052
758.593	16585.14965
758.784	16475.85155
758.975	16483.9475
759.167	16508.23553
759.358	16556.8125
759.549	16243.10666
759.74	16214.77417
759.932	16366.55949
760.123	16261.32059
760.314	16409.06127
760.505	16360.48788
760.696	16147.99176
760.888	16504.1875
761.079	16317.98706
761.27	16520.37966
761.461	16382.75054
761.652	16485.97149
761.843	16170.25236
762.034	16204.65551
762.225	16328.10623
762.416	16510.25954
762.607	16277.51086
762.798	16490.01948
762.989	16309.89177
763.18	16542.64409
763.371	16107.51844
763.562	16145.96808
763.753	16212.75043
763.944	16322.03473
764.135	16275.48707
764.326	16386.79832
764.517	16121.68403
764.708	16334.17775
764.899	15982.05501
765.089	15893.0197
765.28	15589.50668
765.471	15840.40908
765.662	15631.99722
765.853	15684.60507
766.043	15654.25432
766.234	15797.91645
766.425	15413.47761
766.615	15674.48813
766.806	15832.3152
766.997	15874.80824
767.187	15474.17678
767.378	15862.66732
767.569	15759.47117
767.759	15623.90376
767.95	15627.95049
768.141	15573.31989
768.331	15547.01647
768.522	15777.68204
768.712	15767.56488
768.903	15812.08061
769.093	15708.88582
769.284	15225.31231
769.474	15271.84761
769.665	14840.88828
769.855	15227.33558
770.046	15251.61486
770.236	15158.54436
770.426	14927.89051
770.617	14942.05358
770.807	15156.52109
770.998	15059.40402
771.188	15140.33493
771.378	14911.70412
771.569	15162.5909
771.759	14703.30087
771.949	14972.40294
772.139	15227.33558
772.33	14701.2775
772.52	14889.44779
772.71	15184.84688
772.9	15077.61349
773.09	15063.45057
773.281	14968.35636
773.471	14917.77402
773.661	14875.28463
773.851	14812.56174
774.041	14569.75615
774.231	14646.64609
774.421	14559.63893
774.611	14424.06507
774.802	14640.57589
774.992	14598.08421
775.182	14646.64609
775.372	15016.91518
775.562	14549.52168
775.752	14905.63422
775.942	14502.98193
776.131	14668.90342
776.321	14280.38986
776.511	14484.77054
776.701	14587.96707
776.891	14490.84101
777.081	14187.29972
777.271	14302.64996
777.461	14498.93497
777.651	14235.86899
777.84	14075.99061
778.03	14059.79963
778.22	14043.60851
778.41	13978.84249
778.599	13978.84249
778.789	14369.42899
778.979	14294.5554
779.169	14088.13374
779.358	14169.08594
779.548	14442.27684
779.738	14003.13004
779.927	14290.50811
780.117	14041.58461
780.307	14158.9671
780.496	14015.27368
780.686	14067.89514
780.875	13867.51977
781.065	13912.04982
781.254	13737.96996
781.444	13616.5055
781.633	13744.04288
781.823	13843.23009
782.012	13916.09794
782.202	14084.08604
782.391	13703.55621
782.581	13715.70234
782.77	13837.15761
782.96	13762.26148
783.149	13233.80714
783.338	13760.2372
783.528	13434.2855
783.717	13458.58323
783.906	13478.83092
784.096	13553.74414
784.285	13610.43197
784.474	13519.32517
784.663	13659.0194
784.853	13462.6328
785.042	13697.4831
785.231	13555.76875
785.42	13557.79336
785.61	13679.2636
785.799	13420.11157
785.988	13505.15235
786.177	13177.09861
786.366	13482.88041
786.555	13333.03887
786.744	13331.01383
786.933	13284.43685
787.122	13535.52246
787.312	13264.18529
787.501	13258.10974
787.69	12913.76034
787.879	12998.848
788.068	12883.36966
788.257	13138.61579
788.445	12782.05858
788.634	12871.21305
788.823	12885.39574
789.012	12972.51231
789.201	12626.01171
789.39	12824.61091
789.579	12565.20461
789.768	12946.17576
789.957	12786.11129
790.145	13006.95112
790.334	12802.3219
790.523	13071.7732
790.712	12727.34479
790.9	12863.10854
791.089	12731.39781
791.278	12775.97948
791.467	12723.29175
791.655	12419.24429
791.844	12607.77016
792.033	12492.22865
792.221	12540.88021
792.41	12573.31255
792.599	12177.92728
792.787	12338.1404
792.976	12325.97386
793.164	12496.28308
793.353	12325.97386
793.541	12553.04252
793.73	12269.19339
793.918	12390.85916
794.107	12102.87506
794.295	12325.97386
794.484	12421.27175
794.672	12295.55644
794.861	12311.77926
795.049	12050.12943
795.238	12076.50289
795.426	12281.3611
795.614	12039.98544
795.803	12315.8349
795.991	12250.94134
796.179	12263.10944
796.368	12508.44624
796.556	12417.21683
796.744	12198.20992
796.932	12206.32276
797.121	11757.90143
797.309	12188.06869
797.497	11899.97805
797.685	12173.87067
797.874	12141.41667
798.062	11861.41849
798.25	11755.87146
798.438	12336.11266
798.626	12218.49181
798.814	12098.81789
799.002	11737.60135
799.19	11656.39218
799.378	11979.11736
799.566	11796.46921
799.755	11593.44519
799.943	11932.44696
800.131	11859.38895
800.318	11999.40751
800.506	11889.83109
800.694	11668.57447
800.882	11830.97459
801.07	12281.3611
801.258	11942.59306
801.446	11928.38846
801.634	11709.17975
801.822	11950.7098
802.01	11940.56386
802.197	12119.10344
802.385	11889.83109
802.573	11930.41771
802.761	11713.24009
802.949	11774.14088
803.136	11843.15238
803.324	11800.52879
803.512	11977.0883
803.699	11983.17545
803.887	11999.40751
804.075	12206.32276
804.262	12046.07185
804.45	11768.05115
804.638	11977.0883
804.825	11995.34954
805.013	11684.81701
805.201	12013.61014
805.388	11741.66143
805.576	12007.52335
805.763	11729.48107
805.951	11461.43061
806.138	11479.71194
806.326	11644.20958
806.513	11668.57447
806.701	11701.05898
806.888	11575.16861
807.075	11725.42087
807.263	11733.54122
807.45	11987.23351
807.638	11384.23413
807.825	11960.85553
808.012	11835.03389
808.2	11869.53654
808.387	11810.6776
808.574	11863.44801
808.761	11554.86041
808.949	12090.70345
809.136	11705.11938
809.323	11757.90143
809.51	11906.06613
809.698	11891.8605
809.885	11841.12277
810.072	12021.72576
810.259	11847.21157
810.446	12035.92778
810.633	11784.29025
810.82	11883.74281
811.008	11845.18198
811.195	12074.47421
811.382	11940.56386
811.569	11942.59306
811.756	11709.17975
811.943	11993.32055
812.13	11824.88558
812.317	12005.4944
812.504	11954.76812
812.691	12117.07492
812.878	11774.14088
813.064	12224.57624
813.251	11889.83109
813.438	12009.55229
813.625	11747.7515
813.812	11875.62499
813.999	11686.84729
814.186	12155.61553
814.372	11806.61811
814.559	11871.56603
814.746	11629.99612
814.933	11684.81701
815.12	11426.89708
815.306	11516.27227
815.493	11485.80554
815.68	11810.6776
815.866	11623.90451
816.053	11906.06613
816.24	11818.7965
816.426	11824.88558
816.613	11701.05898
816.799	11792.40959
816.986	11554.86041
817.173	11922.30065
817.359	11353.75793
817.546	11627.96559
817.732	11475.64949
817.919	12021.72576
818.105	11776.17077
818.292	11938.53464
818.478	11766.02122
818.665	12037.95661
818.851	11833.00424
819.037	12017.66797
819.224	11729.48107
819.41	11812.70734
819.597	11611.72103
819.783	11930.41771
819.969	11548.76777
820.156	11514.24122
820.342	11603.59852
820.528	11613.75163
820.714	11506.11693
820.901	11794.4394
821.087	11591.4145
821.273	11962.88466
821.459	11540.64412
821.646	11826.91526
821.832	11538.61319
822.018	11904.03678
822.204	11075.30213
822.39	11357.82156
822.576	11132.22883
822.762	11435.02287
822.948	11105.79963
823.134	11189.14716
823.32	11054.96911
823.507	11680.75643
823.693	11380.17077
823.879	11546.73688
824.065	11085.46823
824.25	11296.86302
824.436	11416.73963
824.622	11006.16538
824.808	11073.26888
824.994	11264.34807
825.18	11150.52491
825.366	11274.50927
825.552	11111.89883
825.738	11183.04916
825.923	10928.87972
826.109	11445.17989
826.295	11042.76877
826.481	11229.79806
826.667	10896.33352
826.852	11073.26888
827.038	10894.29928
827.224	11048.86899
827.409	10841.40513
827.595	10987.86235
827.781	10566.63351
827.966	10886.16223
828.152	10656.21298
828.338	10819.02448
828.523	10656.21298
828.709	10676.56862
828.894	10263.10145
829.08	10643.999
829.266	10466.846
829.451	10798.67721
829.637	10389.43857
829.822	10593.10267
830.008	10660.2842
830.193	10784.43342
830.378	10554.41626
830.564	10749.83894
830.749	10312.01222
830.935	10912.60699
831.12	10316.08777
831.305	10550.34374
831.491	10654.17734
831.676	10546.27118
831.861	10395.55036
832.047	10505.54273
832.232	10279.4059
832.417	10377.21462
832.602	10623.64139
832.788	10589.03062
832.973	10572.74196
833.158	10757.97912
833.343	10375.17725
833.528	10369.06506
833.714	10309.97442
833.899	10373.13987
834.084	10012.30959
834.269	10271.25378
834.454	9975.59045
834.639	10002.1103
834.824	10126.5174
835.009	10285.51985
835.194	10010.26976
835.379	10226.41327
835.564	10049.02409
835.749	10173.41143
835.934	9859.28208
836.119	10079.61599
836.304	9828.66665
836.489	9893.97553
836.674	9681.66544
836.859	9922.54341
837.044	9828.66665
837.228	9787.84085
837.413	9720.46508
837.598	10236.60488
837.783	9763.34248
837.968	9820.50197
838.152	9411.95401
838.337	9891.93485
838.522	9855.20021
838.707	9777.63346
838.891	9757.21755
839.076	9955.1889
839.261	9681.66544
839.445	9863.36388
839.63	9720.46508
839.815	9761.30085
839.999	9706.17112
840.184	10157.10129
840.368	9787.84085
840.553	10049.02409
840.737	9638.77515
840.922	9542.75767
841.106	9311.76251
841.291	9775.59194
841.475	9646.94526
841.66	9675.53867
841.844	9452.83723
842.029	9420.13117
842.213	9307.67222
842.397	9534.58436
842.582	9274.94751
842.766	9285.17444
842.951	9015.04133
843.135	9217.66896
843.319	9039.61127
843.504	9148.09864
843.688	9528.45421
843.872	9338.34778
844.056	9356.75133
844.241	9366.97495
844.425	9086.69665
844.609	8996.61222
844.793	9201.30124
844.977	9060.08431
845.161	8969.98989
845.346	9012.99372
845.53	9076.46148
845.714	9015.04133
845.898	8717.95218
846.082	9137.86605
846.266	9170.60884
846.45	9105.11887
846.634	9135.81948
846.818	9023.23159
847.002	8744.60327
847.186	8840.93147
847.37	8775.35068
847.554	9107.1657
847.738	8842.98057
847.922	8972.03786
848.106	9027.32662
848.29	8879.86131
848.473	8662.58998
848.657	8785.5989
848.841	8412.2645
849.025	8551.82488
849.209	8443.05748
849.392	8490.26499
849.576	8775.35068
849.76	8547.72142
849.944	8473.84613
850.127	8785.5989
850.311	8206.86629
850.495	8607.21425
850.678	8535.41058
850.862	8824.53801
851.046	8362.98672
851.229	8543.61788
851.413	8330.12866
851.596	8547.72142
851.78	8412.2645
851.964	8592.85536
852.147	8126.70755
852.331	8576.44407
852.514	8153.4305
852.698	8422.52931
852.881	7820.17665
853.065	8017.72496
853.248	7661.58805
853.431	7918.9745
853.615	7811.94134
853.798	7844.88059
853.982	7803.7057
854.165	7881.9309
854.348	7865.46492
854.532	8136.98601
854.715	7888.10529
854.898	8067.08259
855.081	7698.67188
855.265	8134.93036
855.448	7875.75631
855.631	8025.95204
855.814	7807.82356
855.997	7863.40658
856.181	7548.2337
856.364	8017.72496
856.547	7585.33859
856.73	7896.33754
856.913	7638.92233
857.096	7974.52743
857.279	8104.09318
857.462	8019.78176
857.645	7916.9167
857.828	7879.87272
858.011	7624.49736
858.194	7445.12804
858.377	7300.68902
858.56	7537.92556
858.743	7432.75173
858.926	7420.37464
859.109	7449.2533
859.292	7436.87726
859.475	7352.28666
859.658	7397.68128
859.841	7160.27383
860.023	7182.99499
860.206	7193.3219
860.389	7267.65933
860.572	7054.89508
860.755	7333.71309
860.937	7007.35228
861.12	7044.5607
861.303	7236.68888
861.486	7393.55494
861.668	7166.47078
861.851	7075.56216
862.034	6841.89311
862.216	7007.35228
862.399	6730.12594
862.581	6850.16951
862.764	6684.57204
862.947	6982.54262
863.129	6761.17906
863.312	7007.35228
863.494	7001.15017
863.677	7100.3597
863.859	6759.10901
864.042	7030.09162
864.224	6549.91591
864.406	6730.12594
864.589	6558.20526
864.771	6901.8888
864.954	6402.71824
865.136	6612.077
865.318	6531.26352
865.501	6543.69865
865.683	6462.85538
865.865	6699.06767
866.048	6440.04704
866.23	6846.03135
866.412	6547.84351
866.594	6636.93562
866.777	6406.86626
866.959	6788.0876
867.141	6390.27363
867.323	6431.75241
867.505	6392.34779
867.687	6564.42202
867.869	6340.4868
868.052	6641.0784
868.234	6483.58779
868.416	6483.58779
868.598	6367.45634
868.78	6506.39076
868.962	6294.83706
869.144	6587.21506
869.326	6392.34779
869.508	6411.01418
869.69	6207.6561
869.872	6475.2951
870.054	6369.53075
870.236	6514.68205
870.417	6274.08343
870.599	6527.11829
870.781	6365.3819
870.963	6408.94023
871.145	6207.6561
871.327	6298.9875
871.508	6107.97006
871.69	6402.71824
871.872	6134.9737
872.054	6197.27466
872.235	5995.7585
872.417	6381.97676
872.599	5787.77785
872.78	6161.97338
872.962	5852.27708
873.144	6118.35654
873.325	6020.70034
873.507	6053.95084
873.689	5875.15846
873.87	6149.51248
874.052	5987.44381
874.233	6083.04009
874.415	5750.31627
874.596	6203.50359
874.778	5756.5604
874.959	5866.83829
875.141	5868.91836
875.322	6182.73966
875.503	6022.77867
875.685	6107.97006
875.866	5997.83712
876.048	6226.34121
876.229	6029.01353
876.41	6004.07283
876.592	5985.36507
876.773	6323.8882
876.954	5739.90892
877.136	6120.43377
877.317	5875.15846
877.498	6193.12192
877.679	5935.4684
877.86	6174.43343
878.042	5852.27708
878.223	6087.19532
878.404	5823.1512
878.585	6014.4652
878.766	5862.67806
878.947	6141.20475
879.128	5717.01067
879.309	5895.95723
879.49	6035.24817
879.672	6043.56071
879.853	5875.15846
880.034	5941.70622
880.215	5835.63429
880.396	6091.35045
880.576	5902.1964
880.757	6107.97006
880.938	5656.62887
881.119	5964.57644
881.3	5821.07061
881.481	6213.88468
881.662	5979.12873
881.843	6332.18769
882.023	6072.6516
882.204	6107.97006
882.385	5675.37017
882.566	6049.79486
882.747	5891.79766
882.927	6137.05074
883.108	5825.23178
883.289	6062.26252
883.469	6008.22984
883.65	6251.25174
883.831	5898.03698
884.011	6230.4932
884.192	6018.62198
884.373	6149.51248
884.553	6130.81955
884.734	6203.50359
884.914	5983.28631
885.095	6301.06269
885.275	6222.18913
885.456	6031.09177
885.636	6257.47885
885.817	6166.12682
885.997	6191.04551
886.178	6361.23295
886.358	6114.20202
886.538	6408.94023
886.719	6083.04009
886.899	6182.73966
887.08	6265.78133
887.26	6381.97676
887.44	5983.28631
887.621	6203.50359
887.801	5816.90934
887.981	6157.81984
888.161	6076.80707
888.342	6159.89662
888.522	5981.20753
888.702	6132.89664
888.882	6184.81616
889.062	6338.41206
889.242	6232.56916
889.423	6159.89662
889.603	5916.75364
889.783	6272.00794
889.963	5943.78545
890.143	6238.7969
890.323	6110.0474
890.503	6191.04551
890.683	6139.12776
890.863	6157.81984
891.043	6157.81984
891.223	6386.12524
891.403	6124.58816
891.583	6188.96909
891.763	5941.70622
891.943	6072.6516
892.122	5852.27708
892.302	6035.24817
892.482	5977.0499
892.662	6083.04009
892.842	5918.83315
893.022	5914.67411
893.201	5825.23178
893.381	6039.40449
893.561	6035.24817
893.741	6242.94861
893.92	5756.5604
894.1	5991.6012
894.28	5775.2915
894.459	6029.01353
894.639	5635.80296
894.819	6051.87286
894.998	5831.47336
895.178	6024.85698
895.357	5758.64172
895.537	5964.57644
895.716	5741.99043
895.896	5898.03698
896.075	5679.53465
896.255	6012.38677
896.434	5698.27361
896.614	5962.49745
896.793	5560.81015
896.973	5650.38134
897.152	5408.6477
897.331	5850.19682
897.511	5737.82738
897.69	5800.26334
897.87	5314.78654
898.049	5635.80296
898.228	5260.53402
898.407	5410.73296
898.587	5145.71705
898.766	5702.43757
898.945	5354.4226
899.124	5477.449
899.304	5072.61506
899.483	5022.47157
899.662	5007.84387
899.841	5260.53402
900.02	4926.32606
900.199	5260.53402
900.378	4909.60013
900.557	5252.18607
900.737	4761.09346
900.916	5174.94988
901.095	4951.41219
901.274	5177.03776
901.453	4777.83234
901.632	4957.68321
901.811	4792.47767
901.989	4815.48952
902.168	4675.28397
902.347	4934.68847
902.526	4367.31728
902.705	4715.05406
902.884	4514.02768
903.063	4815.48952
903.242	4698.30975
903.42	4675.28397
903.599	4505.64713
903.778	4698.30975
903.957	4514.02768
904.135	4673.19058
904.314	4316.99198
904.493	4532.88263
904.672	4455.35641
904.85	4331.67148
905.029	4165.94193
905.207	4220.50052
905.386	4025.28329
905.565	4121.86497
905.743	3995.88019
905.922	4296.01943
906.1	3884.53232
906.279	3991.67942
906.457	3808.86767
906.636	4016.88282
906.814	3819.37819
906.993	3859.31364
907.171	3516.48257
907.35	4142.85515
907.528	3569.0967
907.707	3716.35404
907.885	3726.86885
908.063	3834.09208
908.242	3918.15276
908.42	3741.58876
908.598	3447.01444
908.777	3623.80309
908.955	3482.80351
909.133	3775.23072
909.311	3541.73879
909.49	3829.88821
909.668	3463.857
909.846	3602.76367
910.024	3550.15694
910.202	3667.97974
910.38	3514.37776
910.559	3682.70342
910.737	3623.80309
910.915	3775.23072
911.093	3522.79687
911.271	3792.04982
911.449	3455.43586
911.627	3665.87628
911.805	3261.67183
911.983	3575.40962
912.161	3345.93516
912.339	3783.64043
912.517	3598.55556
912.695	3943.3647
912.872	3783.64043
913.05	4004.28149
913.228	3724.76592
913.406	3892.93792
913.584	3588.03496
913.762	3783.64043
913.939	3468.06746
914.117	3834.09208
914.295	3649.04791
914.473	3754.20508
914.65	3579.61814
914.828	3787.84516
915.006	3371.20878
915.184	3779.43561
915.361	3583.82659
915.539	3619.59536
915.716	3392.2682
915.894	3566.99236
916.072	3371.20878
916.249	3425.95961
916.427	3232.17325
916.604	3575.40962
916.782	3249.02998
916.959	3680.6001
917.137	3280.63346
917.314	3649.04791
917.492	3278.52668
917.669	3356.46614
917.847	3217.42273
918.024	3253.244
918.201	3046.68022
918.379	3375.4208
918.556	3050.89734
918.733	3320.65904
918.911	2924.3573
919.088	3350.1476
919.265	3042.46304
919.442	3230.06608
919.62	3055.11439
919.797	3308.02005
919.974	3289.06041
920.151	3358.57228
920.328	3025.5937
920.506	3272.20624
920.683	2899.04286
920.86	3240.60175
921.037	2905.37167
921.214	2915.91938
921.391	2772.43999
921.568	3017.15866
921.745	2951.77889
921.922	3160.52031
922.099	2932.79497
922.276	3181.59667
922.453	2763.99803
922.63	2911.70034
922.807	2620.45265
922.984	2839.96779
923.161	2715.45262
923.338	2818.86687
923.514	2631.00946
923.691	2831.52759
923.868	2801.98514
924.045	2761.8875
924.222	2633.12079
924.399	2871.61654
924.575	2436.71683
924.752	2628.89813
924.929	2523.31584
925.105	2688.01083
925.282	2288.82389
925.459	2599.33811
925.635	2421.92979
925.812	2673.23359
925.989	2421.92979
926.165	2438.82922
926.342	2358.55098
926.518	2595.11505
926.695	2519.09193
926.871	2350.09978
927.048	2299.38927
927.224	2252.89984
927.401	1921.02077
927.577	2181.04402
927.754	1973.87927
927.93	2187.38464
928.107	1967.53645
928.283	2208.51948
928.459	2039.4184
928.636	2197.95217
928.812	2132.43016
928.988	2107.06474
929.165	1940.05026
929.341	2005.59254
929.517	1912.56308
929.693	1982.33628
929.87	1827.98152
930.046	1937.93589
930.222	1787.80262
930.398	2049.98862
930.574	1836.44003
930.751	1899.87637
930.927	1686.2918
931.103	1986.56475
931.279	1758.19616
931.455	1817.40828
931.631	1489.59798
931.807	1885.07497
931.983	1580.54425
932.159	1698.98108
932.335	1531.89881
932.511	1737.04823
932.687	1413.45615
932.863	1711.67025
933.039	1531.89881
933.215	1781.45845
933.391	1694.75133
933.566	1574.19924
933.742	1419.8013
933.918	1426.14645
934.094	1271.75052
934.27	1445.18191
934.445	1166.00668
934.621	1436.7217
934.797	1123.71168
934.973	1123.71168
935.148	1187.15478
935.324	1015.86821
935.5	1049.69993
935.675	1077.18928
935.851	880.55831
936.027	872.10247
936.202	882.67229
936.378	878.44434
936.553	886.90028
936.729	982.03805
936.904	760.07603
937.08	821.37031
937.255	616.38649
937.431	681.88549
937.606	527.66536
937.782	591.03522
937.957	542.45056
938.133	534.00179
938.308	506.54484
938.483	597.37286
938.659	485.42577
938.834	390.40887
939.009	464.30819
939.185	426.3004
939.36	371.40941
939.535	470.64331
939.71	365.07655
939.886	417.85491
940.061	316.52984
940.236	375.63139
940.411	232.12365
940.586	388.29776
940.761	377.74241
940.937	348.18969
941.112	322.8615
941.287	324.97208
941.462	289.09456
941.637	251.11241
941.812	211.02688
941.987	253.22237
942.162	230.01389
942.337	320.75093
942.512	185.7134
942.687	303.86702
942.862	232.12365
943.037	278.54336
943.212	126.66015
943.386	257.44235
943.561	213.13647
943.736	270.10273
943.911	189.93211
944.086	164.62107
944.26	162.51195
944.435	244.78265
944.61	194.1509
944.785	211.02688
944.959	126.66015
945.134	156.18471
945.309	143.53082
945.483	259.55236
945.658	185.7134
945.833	202.58873
946.007	143.53082
946.182	204.69824
946.357	170.94855
946.531	185.7134
946.706	278.54336
946.88	227.90414
947.055	135.09531
947.229	240.56291
947.404	181.49477
947.578	211.02688
947.752	217.35571
947.927	213.13647
948.101	168.83937
948.276	299.64623
948.45	211.02688
948.624	286.98428
948.799	257.44235
948.973	295.42551
949.147	187.82274
949.321	147.7487
949.496	181.49477
949.67	204.69824
949.844	251.11241
950.018	244.78265
950.193	154.07568
950.367	246.89255
950.541	185.7134
950.715	223.68471
950.889	265.88252
951.063	253.22237
951.237	211.02688
951.411	286.98428
951.585	200.47924
951.759	244.78265
951.933	267.99262
952.107	236.34324
952.281	194.1509
952.455	261.6624
952.629	187.82274
952.803	339.74668
952.977	202.58873
953.151	274.323
953.325	215.24608
953.499	232.12365
953.672	160.40285
953.846	276.43317
954.02	170.94855
954.194	278.54336
954.368	223.68471
954.541	320.75093
954.715	211.02688
954.889	223.68471
955.062	312.30883
955.236	286.98428
955.41	185.7134
955.583	253.22237
955.757	352.41131
955.93	278.54336
956.104	255.33235
956.278	244.78265
956.451	189.93211
956.625	211.02688
956.798	154.07568
956.972	253.22237
957.145	219.46535
957.319	221.57502
957.492	154.07568
957.665	189.93211
957.839	149.85767
958.012	206.80777
958.185	223.68471
958.359	282.76378
958.532	219.46535
958.705	291.20486
958.879	270.10273
959.052	257.44235
959.225	202.58873
959.398	299.64623
959.572	175.16697
959.745	234.23344
959.918	194.1509
960.091	278.54336
960.264	238.45306
960.438	240.56291
960.611	189.93211
960.784	305.97745
960.957	301.75662
961.13	284.87402
961.303	234.23344
961.476	219.46535
961.649	154.07568
961.822	240.56291
961.995	202.58873
962.168	202.58873
962.341	208.91732
962.514	251.11241
962.686	215.24608
962.859	238.45306
963.032	179.38548
963.205	189.93211
963.378	151.96666
963.551	261.6624
963.723	211.02688
963.896	185.7134
964.069	196.26033
964.242	196.26033
964.414	303.86702
964.587	225.79441
964.76	160.40285
964.932	238.45306
965.105	221.57502
965.278	249.00247
965.45	168.83937
965.623	137.20416
965.795	196.26033
965.968	204.69824
966.14	139.31302
966.313	261.6624
966.485	111.89944
966.658	236.34324
966.83	236.34324
967.003	168.83937
967.175	194.1509
967.348	246.89255
967.52	227.90414
967.692	198.36978
967.865	246.89255
968.037	211.02688
968.209	162.51195
968.382	227.90414
968.554	164.62107
968.726	211.02688
968.898	181.49477
969.071	181.49477
969.243	211.02688
969.415	145.63975
969.587	122.44269
969.759	194.1509
969.932	135.09531
970.104	147.7487
970.276	162.51195
970.448	92.92297
970.62	122.44269
970.792	109.79086
970.964	185.7134
971.136	160.40285
971.308	160.40285
971.48	132.98649
971.652	160.40285
971.824	149.85767
971.996	196.26033
972.168	109.79086
972.339	105.57375
972.511	177.27622
972.683	101.35674
972.855	114.00805
973.027	54.97546
973.199	177.27622
973.37	183.60407
973.542	137.20416
973.714	168.83937
973.886	67.62381
974.057	67.62381
974.229	143.53082
974.401	90.81458
974.572	141.42191
974.744	118.22533
974.915	122.44269
975.087	143.53082
975.259	143.53082
975.43	185.7134
975.602	187.82274
975.773	50.75953
975.945	90.81458
976.116	160.40285
976.288	109.79086
976.459	177.27622
976.63	126.66015
976.802	137.20416
976.973	135.09531
977.145	109.79086
977.316	80.27299
977.487	122.44269
977.659	145.63975
977.83	69.73195
978.001	179.38548
978.172	46.54368
978.344	48.65159
978.515	101.35674
978.686	38.11228
978.857	76.05651
979.028	145.63975
979.2	143.53082
979.371	137.20416
979.542	59.19149
979.713	52.86748
979.884	118.22533
980.055	69.73195
980.226	52.86748
980.397	101.35674
980.568	71.84011
980.739	160.40285
980.91	143.53082
981.081	84.48956
981.252	48.65159
981.423	173.05775
981.594	139.31302
981.765	139.31302
981.936	101.35674
982.106	162.51195
982.277	105.57375
982.448	90.81458
982.619	118.22533
982.79	78.16474
982.96	103.46523
983.131	109.79086
983.302	154.07568
983.472	88.70622
983.643	84.48956
983.814	52.86748
983.984	109.79086
984.155	21.25059
984.326	126.66015
984.496	122.44269
984.667	78.16474
984.837	44.4358
985.008	84.48956
985.178	54.97546
985.349	86.59788
985.519	36.00449
985.69	105.57375
985.86	63.4076
986.031	52.86748
986.201	86.59788
986.371	88.70622
986.542	118.22533
986.712	92.92297
986.882	101.35674
987.053	76.05651
987.223	71.84011
987.393	61.29953
987.563	-4.03909
987.734	67.62381
987.904	54.97546
988.074	88.70622
988.244	59.19149
988.414	92.92297
988.585	59.19149
988.755	42.32793
988.925	-14.57544
989.095	120.334
989.265	67.62381
989.435	0.17561
989.605	50.75953
989.775	101.35674
989.945	31.78897
990.115	154.07568
990.285	36.00449
990.455	8.60532
990.625	44.4358
990.795	67.62381
990.965	-1.93175
991.134	111.89944
991.304	0.17561
991.474	76.05651
991.644	38.11228
991.814	76.05651
991.984	101.35674
992.153	21.25059
992.323	27.57355
992.493	42.32793
992.662	67.62381
992.832	33.89672
993.002	46.54368
993.171	21.25059
993.341	40.22009
993.511	101.35674
993.68	4.39042
993.85	109.79086
994.019	40.22009
994.189	19.14299
994.358	59.19149
994.528	-46.18078
994.697	33.89672
994.867	33.89672
995.036	42.32793
995.206	114.00805
995.375	4.39042
995.544	59.19149
995.714	-20.89695
995.883	17.0354
996.052	8.60532
996.222	42.32793
996.391	4.39042
996.56	-14.57544
996.73	50.75953
996.899	54.97546
997.068	86.59788
997.237	44.4358
997.406	109.79086
997.576	84.48956
997.745	42.32793
997.914	-48.28761
998.083	12.82031
998.252	46.54368
998.421	-8.2537
998.59	50.75953
998.759	84.48956
998.928	50.75953
999.097	2.283
999.266	40.22009
999.435	103.46523
999.604	14.92785
999.773	46.54368
999.942	8.60532
1000.111	42.32793
1000.28	2.283
1000.448	19.14299
1000.617	69.73195
1000.786	84.48956
1000.955	69.73195
1001.124	8.60532
1001.292	76.05651
1001.461	25.46587
1001.63	67.62381
1001.798	23.35822
1001.967	73.9483
1002.136	86.59788
1002.304	8.60532
1002.473	-4.03909
1002.642	25.46587
1002.81	19.14299
1002.979	25.46587
1003.147	-4.03909
1003.316	29.68125
1003.484	38.11228
1003.653	-1.93175
1003.821	42.32793
1003.99	0.17561
1004.158	54.97546
1004.327	90.81458
1004.495	33.89672
1004.663	17.0354
1004.832	-37.75323
1005	-25.11117
1005.168	25.46587
1005.337	38.11228
1005.505	38.11228
1005.673	-41.96706
1005.842	63.4076
1006.01	50.75953
1006.178	76.05651
1006.346	27.57355
1006.514	-12.46822
1006.683	25.46587
1006.851	99.24826
1007.019	67.62381
1007.187	31.78897
1007.355	67.62381
1007.523	103.46523
1007.691	63.4076
1007.859	25.46587
1008.027	4.39042
1008.195	-119.90439
1008.363	-25.11117
1008.531	8.60532
1008.699	17.0354
1008.867	27.57355
1009.035	59.19149
1009.203	17.0354
1009.37	88.70622
1009.538	59.19149
1009.706	-6.14641
1009.874	33.89672
1010.042	0.17561
1010.209	67.62381
1010.377	8.60532
1010.545	54.97546
1010.713	44.4358
1010.88	61.29953
1011.048	61.29953
1011.216	4.39042
1011.383	38.11228
1011.551	54.97546
1011.718	73.9483
1011.886	105.57375
1012.054	48.65159
1012.221	-27.21824
1012.389	38.11228
1012.556	29.68125
1012.724	33.89672
1012.891	38.11228
1013.058	25.46587
1013.226	-46.18078
1013.393	59.19149
1013.561	10.7128
1013.728	36.00449
1013.895	59.19149
1014.063	29.68125
1014.23	36.00449
1014.397	76.05651
1014.565	48.65159
1014.732	73.9483
1014.899	0.17561
1015.066	59.19149
1015.233	4.39042
1015.401	19.14299
1015.568	31.78897
1015.735	4.39042
1015.902	46.54368
1016.069	42.32793
1016.236	46.54368
1016.403	-12.46822
1016.57	-18.7898
1016.737	0.17561
1016.904	-25.11117
1017.071	38.11228
1017.238	-37.75323
1017.405	67.62381
1017.572	36.00449
1017.739	52.86748
1017.906	-4.03909
1018.073	-12.46822
1018.24	17.0354
1018.407	50.75953
1018.573	25.46587
1018.74	69.73195
1018.907	46.54368
1019.074	4.39042
1019.241	17.0354
1019.407	46.54368
1019.574	-14.57544
1019.741	-60.92802
1019.907	-18.7898
1020.074	101.35674
1020.241	-54.60793
1020.407	69.73195
1020.574	-73.56752
1020.74	-31.43231
1020.907	-8.2537
1021.073	29.68125
1021.24	48.65159
1021.406	33.89672
1021.573	-41.96706
1021.739	4.39042
1021.906	4.39042
1022.072	-12.46822
1022.239	-52.50118
1022.405	-50.3944
1022.571	67.62381
1022.738	19.14299
1022.904	-12.46822
1023.07	44.4358
1023.237	8.60532
1023.403	-8.2537
1023.569	38.11228
1023.735	59.19149
1023.902	25.46587
1024.068	-12.46822
1024.234	76.05651
1024.4	73.9483
1024.566	52.86748
1024.732	59.19149
1024.898	19.14299
1025.065	88.70622
1025.231	19.14299
1025.397	10.7128
1025.563	-23.00407
1025.729	57.08346
1025.895	52.86748
1026.061	-10.36097
1026.227	-8.2537
1026.392	36.00449
1026.558	-71.461
1026.724	67.62381
1026.89	27.57355
1027.056	27.57355
1027.222	-31.43231
1027.388	-8.2537
1027.553	10.7128
1027.719	17.0354
1027.885	36.00449
1028.051	44.4358
1028.216	17.0354
1028.382	-18.7898
1028.548	21.25059
1028.713	17.0354
1028.879	25.46587
1029.045	-50.3944
1029.21	54.97546
1029.376	46.54368
1029.541	73.9483
1029.707	25.46587
1029.873	-33.53931
1030.038	61.29953
1030.204	97.13981
1030.369	42.32793
1030.534	-1.93175
1030.7	25.46587
1030.865	-6.14641
1031.031	33.89672
1031.196	-41.96706
1031.361	10.7128
1031.527	8.60532
1031.692	50.75953
1031.857	-6.14641
1032.023	-31.43231
1032.188	31.78897
1032.353	12.82031
1032.518	59.19149
1032.684	-58.82135
1032.849	29.68125
1033.014	29.68125
1033.179	2.283
1033.344	-50.3944
1033.509	-16.68263
1033.674	44.4358
1033.839	52.86748
1034.004	101.35674
1034.17	-33.53931
1034.335	46.54368
1034.5	-8.2537
1034.664	29.68125
1034.829	-20.89695
1034.994	71.84011
1035.159	-4.03909
1035.324	-25.11117
1035.489	-8.2537
1035.654	8.60532
1035.819	92.92297
1035.984	4.39042
1036.148	8.60532
1036.313	44.4358
1036.478	69.73195
1036.643	-48.28761
1036.807	25.46587
1036.972	67.62381
1037.137	-33.53931
1037.301	-14.57544
1037.466	2.283
1037.631	46.54368
1037.795	-50.3944
1037.96	-25.11117
1038.124	-6.14641
1038.289	8.60532
1038.454	-23.00407
1038.618	76.05651
1038.783	-8.2537
1038.947	59.19149
1039.111	-16.68263
1039.276	25.46587
1039.44	25.46587
1039.605	-65.14129
1039.769	-6.14641
1039.933	8.60532
1040.098	-92.52504
1040.262	147.7487
1040.426	25.46587
1040.591	-6.14641
1040.755	25.46587
1040.919	-20.89695
1041.083	-14.57544
1041.248	-48.28761
1041.412	12.82031
1041.576	61.29953
1041.74	4.39042
1041.904	-12.46822
1042.068	38.11228
1042.232	82.38126
1042.397	-33.53931
1042.561	25.46587
1042.725	10.7128
1042.889	-18.7898
1043.053	8.60532
1043.217	33.89672
1043.381	65.5157
1043.544	8.60532
1043.708	44.4358
1043.872	8.60532
1044.036	-12.46822
1044.2	10.7128
1044.364	42.32793
1044.528	-23.00407
1044.691	-35.64629
1044.855	-33.53931
1045.019	31.78897
1045.183	19.14299
1045.346	59.19149
1045.51	-8.2537
1045.674	17.0354
1045.837	42.32793
1046.001	50.75953
1046.165	2.283
1046.328	-94.6313
1046.492	61.29953
1046.655	23.35822
1046.819	111.89944
1046.983	29.68125
1047.146	61.29953
1047.31	-25.11117
1047.473	-37.75323
1047.636	-58.82135
1047.8	44.4358
1047.963	29.68125
1048.127	-35.64629
1048.29	17.0354
