Data from mixed_try1_USB4F045381__3__00025.txt Node

Date: Thu Apr 03 19:32:16 EDT 2025
User: mmckonesweet
Spectrometer: USB4F04538
Trigger mode: 4
Integration Time (sec): 2.700000E-3
Scans to average: 1
Electric dark correction enabled: true
Nonlinearity correction enabled: true
Boxcar width: 0
XAxis mode: Wavelengths
Number of Pixels in Spectrum: 3648
>>>>>Begin Spectral Data<<<<<
345.52	98.19403
345.736	98.19403
345.952	98.19403
346.168	-15.62904
346.384	5.44413
346.6	15.98162
346.816	-43.0205
347.032	-30.3788
347.248	13.87408
347.464	-57.768
347.68	-11.4146
347.896	24.41204
348.112	1.22931
348.328	7.55158
348.544	58.13747
348.76	24.41204
348.975	-2.98542
349.191	-0.87807
349.407	58.13747
349.623	-21.95051
349.839	89.7604
350.055	5.44413
350.27	-15.62904
350.486	11.76656
350.702	-9.30734
350.918	7.55158
351.133	-45.12736
351.349	13.87408
351.565	-17.73622
351.781	30.7351
351.996	56.02946
352.212	-40.91361
352.428	-19.84338
352.644	11.76656
352.859	11.76656
353.075	-49.34101
353.291	-24.05762
353.506	-28.27177
353.722	-0.87807
353.938	-11.4146
354.153	68.67788
354.369	-0.87807
354.584	9.65906
354.8	77.11062
355.016	-11.4146
355.231	-32.48582
355.447	22.3044
355.662	-15.62904
355.878	85.54372
356.093	15.98162
356.309	-36.69976
356.524	7.55158
356.74	89.7604
356.955	37.05838
357.171	-32.48582
357.386	18.08919
357.602	72.8942
357.817	43.38186
358.033	41.27401
358.248	20.19678
358.464	30.7351
358.679	47.59764
358.895	47.59764
359.11	49.70556
359.325	34.9506
359.541	30.7351
359.756	13.87408
359.972	24.41204
360.187	-47.2342
360.402	15.98162
360.618	-0.87807
360.833	24.41204
361.048	49.70556
361.264	-61.98135
361.479	89.7604
361.694	-19.84338
361.909	-19.84338
362.125	11.76656
362.34	34.9506
362.555	-13.52183
362.77	43.38186
362.986	26.51971
363.201	43.38186
363.416	-70.40773
363.631	-15.62904
363.847	56.02946
364.062	7.55158
364.277	22.3044
364.492	-28.27177
364.707	26.51971
364.922	-17.73622
365.138	56.02946
365.353	-9.30734
365.568	51.8135
365.783	-53.55456
365.998	102.41098
366.213	1.22931
366.428	-66.19459
366.643	-45.12736
366.858	18.08919
367.073	-34.5928
367.288	-11.4146
367.503	127.71452
367.718	43.38186
367.933	-2.98542
368.148	13.87408
368.363	30.7351
368.578	-2.98542
368.793	30.7351
369.008	37.05838
369.223	5.44413
369.438	-13.52183
369.653	37.05838
369.868	-11.4146
370.083	5.44413
370.298	5.44413
370.513	1.22931
370.728	110.84515
370.943	64.46165
371.157	47.59764
371.372	-19.84338
371.587	-24.05762
371.802	22.3044
372.017	-11.4146
372.232	5.44413
372.446	26.51971
372.661	9.65906
372.876	-7.20006
373.091	39.16618
373.306	1.22931
373.52	72.8942
373.735	41.27401
373.95	49.70556
374.165	26.51971
374.379	22.3044
374.594	7.55158
374.809	51.8135
375.023	-19.84338
375.238	66.56975
375.453	34.9506
375.667	5.44413
375.882	18.08919
376.097	-24.05762
376.311	22.3044
376.526	41.27401
376.741	32.84284
376.955	18.08919
377.17	-15.62904
377.384	22.3044
377.599	-45.12736
377.813	-5.09275
378.028	18.08919
378.242	39.16618
378.457	51.8135
378.672	34.9506
378.886	-2.98542
379.101	-15.62904
379.315	18.08919
379.53	-53.55456
379.744	-11.4146
379.958	9.65906
380.173	62.35357
380.387	24.41204
380.602	-9.30734
380.816	24.41204
381.031	58.13747
381.245	15.98162
381.459	64.46165
381.674	22.3044
381.888	43.38186
382.103	26.51971
382.317	-2.98542
382.531	34.9506
382.746	15.98162
382.96	85.54372
383.174	30.7351
383.388	-9.30734
383.603	-30.3788
383.817	43.38186
384.031	-28.27177
384.246	-24.05762
384.46	3.33671
384.674	-38.8067
384.888	58.13747
385.103	53.92147
385.317	13.87408
385.531	-19.84338
385.745	-7.20006
385.959	30.7351
386.174	62.35357
386.388	98.19403
386.602	-26.16471
386.816	-19.84338
387.03	39.16618
387.244	22.3044
387.458	51.8135
387.672	-9.30734
387.887	56.02946
388.101	115.06236
388.315	77.11062
388.529	24.41204
388.743	53.92147
388.957	24.41204
389.171	34.9506
389.385	22.3044
389.599	5.44413
389.813	30.7351
390.027	7.55158
390.241	15.98162
390.455	-11.4146
390.669	32.84284
390.883	85.54372
391.097	41.27401
391.311	-43.0205
391.525	41.27401
391.738	39.16618
391.952	-28.27177
392.166	-9.30734
392.38	24.41204
392.594	-34.5928
392.808	70.78603
393.022	18.08919
393.236	43.38186
393.449	34.9506
393.663	56.02946
393.877	108.73657
394.091	47.59764
394.305	13.87408
394.518	81.32712
394.732	47.59764
394.946	60.24551
395.16	66.56975
395.373	-7.20006
395.587	18.08919
395.801	26.51971
396.015	22.3044
396.228	58.13747
396.442	24.41204
396.656	45.48974
396.869	60.24551
397.083	43.38186
397.297	24.41204
397.51	24.41204
397.724	-2.98542
397.938	22.3044
398.151	56.02946
398.365	47.59764
398.578	13.87408
398.792	81.32712
399.005	-5.09275
399.219	81.32712
399.433	64.46165
399.646	1.22931
399.86	-11.4146
400.073	13.87408
400.287	66.56975
400.5	-40.91361
400.714	66.56975
400.927	72.8942
401.141	-28.27177
401.354	108.73657
401.567	5.44413
401.781	134.0409
401.994	43.38186
402.208	-24.05762
402.421	-43.0205
402.635	108.73657
402.848	30.7351
403.061	-2.98542
403.275	13.87408
403.488	89.7604
403.701	117.171
403.915	39.16618
404.128	-13.52183
404.341	22.3044
404.555	-30.3788
404.768	5.44413
404.981	81.32712
405.195	-2.98542
405.408	22.3044
405.621	-0.87807
405.834	72.8942
406.048	98.19403
406.261	18.08919
406.474	72.8942
406.687	89.7604
406.9	30.7351
407.114	-5.09275
407.327	85.54372
407.54	106.62802
407.753	-45.12736
407.966	32.84284
408.179	64.46165
408.392	100.3025
408.605	-53.55456
408.819	123.49705
409.032	30.7351
409.245	102.41098
409.458	34.9506
409.671	56.02946
409.884	115.06236
410.097	5.44413
410.31	39.16618
410.523	123.49705
410.736	123.49705
410.949	72.8942
411.162	100.3025
411.375	98.19403
411.588	-9.30734
411.801	91.86877
412.014	87.65205
412.227	22.3044
412.44	119.27966
412.653	20.19678
412.865	56.02946
413.078	15.98162
413.291	34.9506
413.504	1.22931
413.717	39.16618
413.93	77.11062
414.143	104.51949
414.356	79.21886
414.568	157.23924
414.781	49.70556
414.994	119.27966
415.207	56.02946
415.42	104.51949
415.632	75.0024
415.845	56.02946
416.058	108.73657
416.271	-0.87807
416.483	56.02946
416.696	58.13747
416.909	22.3044
417.121	60.24551
417.334	-2.98542
417.547	62.35357
417.759	75.0024
417.972	83.43541
418.185	121.38835
418.397	41.27401
418.61	123.49705
418.823	85.54372
419.035	43.38186
419.248	155.13019
419.46	75.0024
419.673	89.7604
419.885	47.59764
420.098	64.46165
420.311	47.59764
420.523	110.84515
420.736	91.86877
420.948	47.59764
421.161	53.92147
421.373	115.06236
421.586	26.51971
421.798	115.06236
422.01	123.49705
422.223	127.71452
422.435	148.80318
422.648	123.49705
422.86	58.13747
423.073	89.7604
423.285	81.32712
423.497	75.0024
423.71	89.7604
423.922	195.20561
424.134	121.38835
424.347	150.91217
424.559	125.60578
424.771	104.51949
424.984	148.80318
425.196	72.8942
425.408	77.11062
425.621	110.84515
425.833	148.80318
426.045	190.9868
426.257	157.23924
426.47	207.86254
426.682	125.60578
426.894	91.86877
427.106	83.43541
427.318	144.58528
427.531	169.89395
427.743	150.91217
427.955	226.84928
428.167	134.0409
428.379	174.11236
428.591	176.22159
428.804	136.14973
429.016	140.36746
429.228	131.93208
429.44	106.62802
429.652	134.0409
429.864	176.22159
430.076	144.58528
430.288	106.62802
430.5	182.54942
430.712	199.42451
430.924	176.22159
431.136	123.49705
431.348	199.42451
431.56	182.54942
431.772	169.89395
431.984	260.60738
432.196	283.8189
432.408	182.54942
432.62	296.48068
432.832	256.38735
433.044	190.9868
433.256	167.78478
433.468	269.04767
433.679	258.49735
433.891	275.37808
434.103	190.9868
434.315	254.27736
434.527	279.59846
434.739	256.38735
434.95	302.81182
435.162	262.71742
435.374	266.93757
435.586	300.70142
435.798	315.47458
436.009	252.16739
436.221	304.92223
436.433	218.41053
436.645	237.39815
436.856	307.03267
437.068	313.36408
437.28	336.58062
437.491	342.91278
437.703	404.13155
437.915	395.68674
438.126	342.91278
438.338	357.68842
438.55	482.25804
438.761	283.8189
438.973	429.46752
439.184	292.26001
439.396	421.02194
439.608	336.58062
439.819	391.46444
440.031	277.48826
440.242	442.13636
440.454	353.46672
440.665	435.80187
440.877	395.68674
441.088	418.91058
441.3	410.46532
441.511	342.91278
441.723	334.46994
441.934	421.02194
442.146	469.58744
442.357	461.14068
442.569	397.79792
442.78	395.68674
442.991	351.3559
443.203	408.35405
443.414	410.46532
443.626	444.24789
443.837	433.6904
444.048	435.80187
444.26	452.69416
444.471	568.85439
444.682	503.37689
444.894	463.25235
445.105	418.91058
445.316	562.51727
445.528	522.3851
445.739	636.45753
445.95	556.18028
446.161	494.92917
446.373	492.81728
446.584	625.89368
446.795	623.78095
447.006	596.31658
447.217	581.52897
447.429	554.06798
447.64	604.76693
447.851	575.19162
448.062	520.27302
448.273	587.86644
448.484	482.25804
448.695	558.2926
448.907	630.11918
449.118	651.24742
449.329	600.54173
449.54	659.69906
449.751	615.33015
449.962	689.28125
450.173	638.57033
450.384	746.3388
450.595	816.086
450.806	756.90586
451.017	723.09218
451.228	655.47322
451.439	824.54092
451.65	750.56559
451.861	750.56559
452.072	862.58981
452.283	663.92495
452.494	909.09773
452.705	849.90653
452.915	739.99868
453.126	860.47591
453.337	813.9723
453.548	862.58981
453.759	951.38093
453.97	959.83792
454.181	1052.87173
454.391	913.32592
454.602	1124.76903
454.813	1006.35331
455.024	1061.32993
455.235	1054.98627
455.445	1048.64267
455.656	970.40932
455.867	1048.64267
456.078	1074.01738
456.288	1103.62217
456.499	1162.8345
456.71	1112.08086
456.921	1027.49769
457.131	1255.88846
457.342	1095.16356
457.553	1196.67155
457.763	1162.8345
457.974	1374.32789
458.184	1224.16482
458.395	1325.68245
458.606	1291.84265
458.816	1435.66417
459.027	1492.77056
459.237	1467.38996
459.448	1520.26612
459.659	1420.85882
459.869	1505.46083
460.08	1632.36126
460.29	1602.75169
460.501	1678.88967
460.711	1678.88967
460.922	1636.59117
461.132	1799.43352
461.343	1831.15347
461.553	1691.57901
461.764	1949.56482
461.974	1681.00457
462.184	1746.56484
462.395	1951.67915
462.605	2163.07853
462.816	1837.49734
463.026	2093.32469
463.236	1998.1929
463.447	2139.82819
463.657	2086.98301
463.867	2279.31484
464.078	2342.70484
464.288	2289.88043
464.498	2275.08854
464.709	2480.01867
464.919	2194.78193
465.129	2363.8329
465.339	2422.98602
465.55	2461.00867
465.76	2492.6915
465.97	2528.59565
466.18	2731.28341
466.391	2948.61498
466.601	2488.46727
466.811	2832.58263
467.021	2830.47255
467.231	3022.43059
467.441	2773.49522
467.651	2942.28708
467.862	3199.5103
468.072	3380.68574
468.282	3328.0315
468.492	3134.17257
468.702	3488.06617
468.912	3464.90962
469.122	3439.64545
469.332	3498.59115
469.542	3410.16733
469.752	3788.89634
469.962	3751.05107
470.172	3965.42276
470.382	3776.28195
470.592	3879.27867
470.802	4049.43282
471.012	4045.2331
471.222	4036.83341
471.432	4250.92119
471.642	4227.84385
471.852	4393.52342
472.062	4183.77996
472.272	4542.30943
472.482	4397.71609
472.691	4649.11501
472.901	4619.80161
473.111	4747.49205
473.321	4824.90266
473.531	5033.96396
473.741	5031.87448
473.95	5125.87789
474.16	4946.18619
474.37	5351.29374
474.58	5175.99382
474.79	5707.64238
474.999	5488.91339
475.209	5449.30611
475.419	5605.6012
475.628	6046.67781
475.838	5663.91738
476.048	5867.87833
476.258	5913.63433
476.467	6378.86534
476.677	6474.25849
476.886	6337.37468
477.096	6669.03976
477.306	6577.89097
477.515	6455.59848
477.725	6561.31366
477.935	6540.58995
478.144	6853.27307
478.354	6888.44315
478.563	7053.86166
478.773	7109.65795
478.982	7307.91351
479.192	7188.15851
479.401	7357.44567
479.611	7076.59545
479.82	7664.67863
480.03	7586.36918
480.239	7598.73588
480.449	7693.52176
480.658	7829.44098
480.868	8088.6729
481.077	8142.12505
481.287	7963.21231
481.496	8464.60999
481.705	8400.97266
481.915	8569.26376
482.124	8559.00576
482.333	8610.29104
482.543	8735.37825
482.752	9007.87462
482.961	8997.6361
483.171	9034.49274
483.38	8952.58136
483.589	9140.93587
483.799	9429.33017
484.008	9462.03507
484.217	9412.97617
484.426	9553.99555
484.636	9584.6419
484.845	9884.79238
485.054	9727.61178
485.263	9941.92712
485.472	9768.44649
485.682	10133.65392
485.891	10141.80974
486.1	10202.97129
486.309	10506.561
486.518	10390.45721
486.727	10575.79615
486.936	10640.94544
487.146	10775.27639
487.355	10769.17157
487.564	10736.61073
487.773	11184.0655
487.982	10954.30443
488.191	11110.88231
488.4	11240.97633
488.609	11429.94427
488.818	11537.59772
489.027	11846.19678
489.236	11653.34656
489.445	11685.83215
489.654	11785.30517
489.863	12095.77499
490.072	11903.0221
490.281	12112.00358
490.49	12205.30866
490.698	12130.26017
490.907	12152.57295
491.116	12489.1878
491.325	12489.1878
491.534	12479.05154
491.743	12614.86416
491.952	12868.17387
492.16	12697.95972
492.369	12955.29236
492.578	12979.60277
492.787	13086.96515
492.996	12870.19999
493.204	13198.36472
493.413	13368.47633
493.622	13645.8605
493.831	13413.02453
494.039	13516.28815
494.248	13441.37239
494.457	13870.55596
494.665	13655.98274
494.874	13848.29047
495.083	13797.68583
495.291	14259.14138
495.5	14170.09782
495.709	14093.19336
495.917	13874.60419
496.126	14295.56722
496.335	14378.53508
496.543	14508.04063
496.752	14042.59656
496.96	14633.49398
497.169	14813.57341
497.377	14815.59674
497.586	14584.93193
497.794	14973.41458
498.003	14767.03666
498.211	14748.82652
498.42	14825.71337
498.628	15440.79218
498.837	15214.18431
499.045	15236.44031
499.254	15200.02141
499.462	15382.11653
499.671	15667.40629
499.879	15722.03795
500.087	15400.32617
500.296	15800.95163
500.504	15758.45945
500.713	15669.42967
500.921	15724.06136
501.129	15752.38918
501.338	15863.67906
501.546	15879.86697
501.754	16003.30245
501.962	15964.85481
502.171	16290.66555
502.379	16576.04123
502.587	16242.09478
502.795	16650.93399
503.004	16515.31959
503.212	16612.47516
503.42	16430.31248
503.628	16766.31548
503.837	16604.37867
504.045	16659.03068
504.253	16962.68478
504.461	17072.01442
504.669	17157.05415
504.877	17128.70702
505.085	17039.61963
505.294	17240.07396
505.502	16974.83213
505.71	17294.74822
505.918	16893.85157
506.126	17436.50654
506.334	17238.04903
506.542	17703.8642
506.75	17543.84794
506.958	17481.06227
507.166	17683.60784
507.374	17647.14723
507.582	17533.72102
507.79	17959.12339
507.998	17884.16065
508.206	18060.43207
508.414	17857.82352
508.622	17902.39439
508.83	18050.3008
509.037	18038.1434
509.245	17805.15102
509.453	18159.72329
509.661	18109.06342
509.869	18500.21778
510.077	18368.46626
510.285	18421.16494
510.492	18244.83702
510.7	18445.48827
510.908	18488.05543
511.116	18585.35815
511.324	18694.83442
511.531	18648.20424
511.739	18528.59715
511.947	18804.32214
512.155	18538.73282
512.362	18775.93532
512.57	18899.62643
512.778	18875.29258
512.985	18875.29258
513.193	18901.65428
513.401	19220.0764
513.608	19130.82697
513.816	18901.65428
514.024	19084.17701
514.231	18603.60341
514.439	19248.47561
514.646	19329.62066
514.854	19327.59196
515.061	19147.05355
515.269	19187.62115
515.477	19368.16687
515.684	19437.14803
515.892	19337.73553
516.099	19855.19574
516.307	19828.80884
516.514	20064.28633
516.722	19964.81049
516.929	19950.60048
517.136	19761.82988
517.344	19747.62281
517.551	19822.71965
517.759	20348.55866
517.966	20208.44271
518.173	19972.93059
518.381	20194.22917
518.588	20255.14581
518.796	20395.26842
519.003	20393.23752
519.21	20504.94352
519.418	20710.1093
519.625	20888.90217
519.832	20876.71073
520.039	20356.68194
520.247	20598.38009
520.454	20492.7568
520.661	21205.93148
520.868	20736.51987
521.076	21506.79405
521.283	20823.88287
521.49	21043.33991
521.697	21149.02147
521.904	21462.06569
522.112	20777.15287
522.319	21321.79381
522.526	20978.3106
522.733	21612.52325
522.94	21183.57359
523.147	21358.38464
523.354	21421.40521
523.561	21730.46451
523.768	21390.91091
523.975	21557.62406
524.183	21901.29918
524.39	21844.35127
524.597	22009.10166
524.804	22041.6479
525.011	21836.2161
525.218	21830.11476
525.425	22297.98307
525.632	22236.94553
525.838	22005.03345
526.045	21968.42022
526.252	22422.10289
526.459	22365.12817
526.666	22827.11084
526.873	22544.20108
527.08	22704.98324
527.287	22715.16006
527.494	22611.36057
527.701	22886.14362
527.907	22818.96861
528.114	23038.82781
528.321	22992.00265
528.528	23236.32704
528.735	23103.97878
528.941	23110.08686
529.148	22702.94789
529.355	23262.79833
529.562	23380.90762
529.768	23578.45882
529.975	22918.71466
530.182	23338.14268
530.388	23181.34994
530.595	23289.27017
530.802	23230.21835
531.008	23710.85459
531.215	23574.3853
531.422	23484.77111
531.628	23706.78068
531.835	23576.42206
532.042	23928.82566
532.248	24230.37205
532.455	23888.08087
532.661	24232.40973
532.868	24030.69261
533.074	24383.20551
533.281	24295.57917
533.487	24682.80134
533.694	24703.18397
533.9	25086.42177
534.107	24544.20599
534.313	24904.98506
534.52	24739.87333
534.726	25004.87494
534.933	24821.40803
535.139	24821.40803
535.345	24862.17682
535.552	24878.48459
535.758	25041.57056
535.965	24568.66315
536.171	25302.53804
536.377	24988.56601
536.584	25683.85736
536.79	25363.70742
536.996	25514.59991
537.203	25127.19653
537.409	25127.19653
537.615	25019.14537
537.821	25424.87869
538.028	25775.62908
538.234	25671.62143
538.44	25632.87477
538.646	25267.87624
538.853	25506.44327
539.059	25302.53804
539.265	25643.07119
539.471	25814.37829
539.677	25944.90692
539.883	26087.68113
540.09	26205.98629
540.296	25967.34229
540.502	26320.2174
540.708	26265.14103
540.914	26607.85763
541.12	26387.53459
541.326	26917.97207
541.532	26766.99104
541.738	26511.97405
541.944	26758.83013
542.15	26995.50591
542.356	26599.69719
542.562	27017.9503
542.768	26599.69719
542.974	26905.73007
543.18	27275.0523
543.386	27215.87615
543.592	27370.96081
543.798	27628.09102
544.004	27660.74387
544.21	27607.68314
544.415	27301.5799
544.621	27403.61116
544.827	27032.23318
545.033	27762.78601
545.239	27354.63576
545.445	28448.58324
545.651	27815.84909
545.856	27697.4787
546.062	27562.78625
546.268	27797.48101
546.474	27652.58063
546.679	27548.50099
546.885	27430.13981
547.091	27528.0936
547.297	27464.83145
547.502	27587.27539
547.708	27662.78468
547.914	27715.84626
548.119	27789.31745
548.325	28497.57349
548.531	27846.46277
548.736	27883.19953
548.942	27772.99039
549.147	28115.87424
549.353	28293.45153
549.559	28338.35744
549.764	28507.77987
549.97	28466.95452
550.175	28969.13559
550.381	28724.16131
550.586	28560.85347
550.792	29107.96099
550.997	28799.69345
551.203	28607.80378
551.408	29056.92168
551.614	29299.8746
551.819	29246.79119
552.025	29330.49997
552.23	29077.33733
552.435	29032.42305
552.641	29371.33415
552.846	29493.83924
553.052	29328.45827
553.257	29814.41241
553.462	29489.75567
553.668	29214.12483
553.873	29536.71692
554.078	29738.86091
554.283	29436.66973
554.489	29714.35805
554.694	29814.41241
554.899	29638.80853
555.105	30316.76703
555.31	29485.67211
555.515	29836.87395
555.72	30039.03394
555.925	30012.48704
556.131	30228.952
556.336	29900.17539
556.541	30335.1472
556.746	30314.72479
556.951	30069.6652
557.156	29691.89722
557.361	30243.24732
557.567	30453.59956
557.772	30386.20374
557.977	30288.17585
558.182	30655.79525
558.387	30878.42964
558.592	30441.34568
558.797	30418.88034
559.002	30518.95438
559.207	30637.4133
559.412	31127.6364
559.617	30663.96504
559.822	30802.85469
560.027	30655.79525
560.232	30610.86179
560.437	30804.89723
560.642	30986.68896
560.847	31242.03373
561.051	31115.37982
561.256	30657.8377
561.461	30917.23913
561.666	30909.06867
561.871	31113.33707
562.076	30954.00648
562.281	31174.62044
562.485	30943.79328
562.69	31174.62044
562.895	31105.16605
563.1	31188.92009
563.305	31233.86234
563.509	31282.89109
563.714	31045.92689
563.919	31438.1548
564.123	31264.5052
564.328	31331.92074
564.533	31793.66333
564.737	31397.29503
564.942	31468.80006
565.147	31873.35366
565.351	31981.65534
565.556	31297.19131
565.761	31587.29858
565.965	31617.94568
566.17	31444.28382
566.374	31769.1438
566.579	32510.98509
566.784	32241.19321
566.988	32132.87817
567.193	32110.39841
567.397	31601.60051
567.602	32463.97312
567.806	32161.48912
568.011	31989.82928
568.215	31965.30758
568.42	31828.3998
568.624	31517.83324
568.828	32012.30775
569.033	32028.65587
569.237	32443.53351
569.442	32682.69137
569.646	32116.52923
569.85	32423.09412
570.055	32754.24063
570.259	32866.68131
570.463	32852.37025
570.668	32212.58112
570.872	32574.35096
571.076	32793.08292
571.281	32876.90357
571.485	33054.78128
571.689	32709.26646
571.893	32778.7725
572.098	33144.75015
572.302	32703.13372
572.506	33216.32012
572.71	33339.01962
572.914	33050.69192
573.119	33218.36503
573.323	32756.28494
573.527	32891.21484
573.731	33083.40717
573.935	33739.91381
574.139	33377.87665
574.343	32897.34828
574.547	32989.35268
574.751	33414.68957
574.955	33390.14752
575.159	33367.65102
575.364	33259.26377
575.568	33028.20058
575.772	33343.10979
575.976	33396.28299
576.18	33179.51228
576.383	33672.40783
576.587	33525.13419
576.791	33259.26377
576.995	33815.6066
577.199	33447.41298
577.403	33746.05089
577.607	34093.86919
577.811	34228.93233
578.015	33672.40783
578.219	33770.59953
578.422	33819.69824
578.626	34271.91038
578.83	33997.69756
579.034	34417.22971
579.238	34308.75006
579.442	34529.81473
579.645	34288.28342
579.849	34572.80497
580.053	34931.12967
580.257	34359.91834
580.46	34308.75006
580.664	34630.12812
580.868	34273.957
581.071	34783.6886
581.275	34488.87331
581.479	34556.42752
581.682	34380.38633
581.886	34849.21513
582.09	34904.50666
582.293	34578.94658
582.497	34912.69827
582.7	34709.97657
582.904	34953.65743
583.107	34634.22276
583.311	34472.4972
583.515	34556.42752
583.718	34978.23379
583.922	35535.48197
584.125	35369.49869
584.329	35105.22222
584.532	35195.35398
584.735	35617.46152
584.939	35455.55991
585.142	35273.20253
585.346	35242.47201
585.549	35533.43259
585.753	35666.6533
585.956	35492.44604
586.159	35369.49869
586.363	36056.19974
586.566	35812.19716
586.769	35670.75276
586.973	35697.39973
587.176	35953.66786
587.379	35748.64647
587.582	36062.35212
587.786	35859.3511
587.989	35808.09696
588.192	35701.49934
588.395	36478.78781
588.599	36261.30742
588.802	36037.74294
589.005	35631.8088
589.208	36027.48936
589.411	36035.69221
589.615	35672.80249
589.818	36562.92649
590.021	36684.02313
590.224	36331.05772
590.427	36171.05272
590.63	36386.45271
590.833	36267.46157
591.036	36000.83074
591.239	36484.94393
591.442	36119.77679
591.645	36406.97053
591.848	36595.76402
592.051	36396.71154
592.254	36183.3595
592.457	36657.33887
592.66	36733.2893
592.863	37117.28878
593.066	37203.56832
593.269	37596.09862
593.472	37065.93789
593.675	37705.06984
593.878	37450.15225
594.081	37333.01161
594.284	37000.21519
594.486	37014.59142
594.689	37993.02565
594.892	37143.993
595.095	37674.22671
595.298	37626.93731
595.5	38003.31272
595.703	38192.63204
595.906	37659.83385
596.109	37304.24392
596.311	37464.53963
596.514	37197.40507
596.717	37653.66559
596.92	37949.82217
597.122	37511.81504
597.325	37213.84054
597.528	37372.0558
597.73	38396.43631
597.933	37752.3661
598.136	37921.02185
598.338	37563.20593
598.541	37988.91087
598.743	37955.99387
598.946	38221.44774
599.148	37890.16614
599.351	37682.45137
599.554	37925.13609
599.756	37748.25321
599.959	38077.38578
600.161	38110.31059
600.363	38182.34112
600.566	38367.61036
600.768	38095.90572
600.971	38515.87639
601.173	38003.31272
601.376	38396.43631
601.578	37824.34671
601.78	38186.45746
601.983	37941.59334
602.185	38353.19803
602.388	38015.65749
602.59	38143.23755
602.792	38126.7738
602.995	38040.34791
603.197	38229.68111
603.399	38410.84992
603.601	37941.59334
603.804	38213.21451
604.006	38546.77091
604.208	38608.56597
604.41	38011.54253
604.613	38184.39929
604.815	38083.55902
605.017	38810.48664
605.219	38635.34635
605.421	38583.84698
605.623	38414.96817
605.826	38431.44154
606.028	38169.9923
606.23	38721.87801
606.432	39080.54007
606.634	39086.7264
606.836	39049.6097
607.038	38794.00003
607.24	38480.86502
607.442	38938.27807
607.644	39598.43421
607.846	38841.40064
608.048	38806.36493
608.25	39226.97318
608.452	39066.10563
608.654	39974.35803
608.856	38528.23396
609.058	39078.47797
609.26	39144.46966
609.462	38942.40097
609.664	39532.37298
609.866	38668.3089
610.067	38934.1552
610.269	38653.8875
610.471	38693.03234
610.673	38839.33964
610.875	38699.2134
611.077	39111.47259
611.278	38998.06384
611.48	39132.09547
611.682	38373.78721
611.884	39208.40853
612.085	39371.39194
612.287	39344.56766
612.489	38629.16613
612.69	39156.8442
612.892	38849.64473
613.094	39140.34489
613.295	38758.96793
613.497	38998.06384
613.699	38674.48964
613.9	38789.87846
614.102	39602.56338
614.304	39344.56766
614.505	38925.90959
614.707	39470.44998
614.908	38897.05111
615.11	39383.77294
615.311	39592.24053
615.513	39144.46966
615.714	39072.29176
615.916	39272.35674
616.117	38816.66928
616.319	39090.85067
616.52	38775.45329
616.722	38746.60429
616.923	39061.98159
617.124	38412.90904
617.326	38100.02136
617.527	38785.75694
617.729	39006.31078
617.93	38730.11996
618.131	38005.37016
618.333	39037.23815
618.534	39086.7264
618.735	38948.5854
618.937	39109.41035
619.138	38721.87801
619.339	38711.57578
619.54	39084.66428
619.742	39251.72726
619.943	39066.10563
620.144	39328.06125
620.345	39375.5189
620.546	39486.9619
620.748	39078.47797
620.949	38882.62256
621.15	39319.80827
621.351	38958.89296
621.552	39144.46966
621.753	38977.44716
621.954	39385.83647
622.155	39257.916
622.356	39453.93871
622.558	39641.79255
622.759	39846.25731
622.96	39097.03714
623.161	39392.02714
623.362	39259.97894
623.563	39274.41975
623.764	38831.09574
623.965	39342.50433
624.166	39429.173
624.366	38789.87846
624.567	38936.21663
624.768	39328.06125
624.969	39092.91282
625.17	39693.41551
625.371	39408.53601
625.572	39759.50229
625.773	39379.6459
625.973	39619.08048
626.174	39212.53394
626.375	39328.06125
626.576	39189.84467
626.777	39061.98159
626.977	39206.34584
627.178	39175.40666
627.379	38919.72547
627.58	39243.47574
627.78	39272.35674
627.981	39272.35674
628.182	39747.11021
628.382	39309.49228
628.583	39375.5189
628.784	39303.3028
628.984	39107.34813
629.185	39482.83386
629.386	38917.66412
629.586	40236.88582
629.787	39842.1257
629.987	39889.64173
630.188	39505.53857
630.388	39652.11663
630.589	39435.3643
630.79	40371.31815
630.99	39623.20985
631.191	39621.14516
631.391	39951.62752
631.591	39914.43491
631.792	39342.50433
631.992	39286.79796
632.193	39503.47446
632.393	39499.34626
632.594	39476.64188
632.794	39253.79017
632.994	39458.06647
633.195	39196.03254
633.395	39885.50968
633.595	40028.0898
633.796	39695.48056
633.996	40251.36093
634.196	39778.09111
634.397	39974.35803
634.597	39813.20561
634.797	40354.77013
634.997	39875.17974
635.198	40112.83532
635.398	39724.39237
635.598	40021.88961
635.798	40267.90456
635.998	39858.65239
636.199	40269.97256
636.399	40497.52014
636.599	40383.72963
636.799	40352.70167
636.999	40232.75018
637.199	40048.75778
637.399	39571.59558
637.599	40003.28963
637.799	39437.42808
637.999	40083.8958
638.199	39769.82931
638.399	40454.06888
638.599	40255.49677
638.799	40139.70963
638.999	40317.53965
639.199	40098.3653
639.399	39862.78416
639.599	40164.51829
639.799	39600.49879
639.999	39681.02542
640.199	40251.36093
640.399	39891.70777
640.599	38806.36493
640.799	40143.8443
640.998	40172.7882
641.198	40185.19337
641.398	40123.17138
641.598	40607.20479
641.798	40979.95728
641.997	40274.1086
642.197	40090.09695
642.397	40478.89757
642.597	40329.94942
642.796	40402.3476
642.996	39561.27349
643.196	39992.95668
643.395	39858.65239
643.595	40236.88582
643.795	40205.86954
643.994	40267.90456
644.194	40282.38081
644.394	40466.48303
644.593	40501.65861
644.793	40851.5227
644.992	40708.63955
645.192	40690.00664
645.392	40367.18108
645.591	40383.72963
645.791	40181.05827
645.99	40483.03584
646.19	40454.06888
646.389	40721.06201
646.589	40638.25336
646.788	40824.59851
646.987	40412.6913
647.187	41019.32522
647.386	40808.03074
647.586	41104.29149
647.785	41131.23614
647.984	41265.98943
648.184	40924.02061
648.383	40526.49038
648.582	40665.16418
648.782	41189.27756
648.981	40427.17295
649.18	40470.62116
649.38	41321.97866
649.579	41504.52292
649.778	41579.22716
649.977	41108.43669
650.177	40499.58937
650.376	40514.07429
650.575	39978.49099
650.774	40226.54679
650.973	40238.95366
651.173	40052.8915
651.372	40582.36776
651.571	40828.74057
651.77	40774.89742
651.969	40971.66983
652.168	41079.42127
652.367	40905.37694
652.566	41093.92869
652.765	41552.24881
652.964	41487.92412
653.163	41122.94527
653.362	40758.33185
653.561	40725.20292
653.76	40795.6054
653.959	40598.9256
654.158	40940.59356
654.357	41015.18103
654.556	40948.88031
654.755	41189.27756
654.954	40959.23901
655.153	40789.39288
655.352	40756.26121
655.551	41328.20022
655.749	41564.7001
655.948	41122.94527
656.147	41423.61109
656.346	41274.28358
656.545	41415.31348
656.743	40936.45025
656.942	40789.39288
657.141	40762.47317
657.34	40396.14151
657.538	40085.96284
657.737	40472.69025
657.936	41021.39733
658.135	40607.20479
658.333	41058.69738
658.532	40636.18337
658.731	40687.93637
658.929	40685.86611
659.128	40392.00417
659.326	40880.52016
659.525	41849.12486
659.724	41382.12498
659.922	41280.50432
660.121	41197.56995
660.319	41197.56995
660.518	40913.6629
660.716	41131.23614
660.915	41160.25569
661.113	41361.38373
661.312	41280.50432
661.51	41736.9882
661.709	41784.74569
661.907	41465.10203
662.105	41004.82075
662.304	41404.94174
662.502	40851.5227
662.701	41044.19135
662.899	41114.65458
663.097	41172.69335
663.296	40733.48488
663.494	41272.21002
663.692	40847.38039
663.891	41489.99893
664.089	41108.43669
664.287	41199.64308
664.485	40576.15876
664.684	41386.27337
664.882	40917.80595
665.08	40895.01975
665.278	41353.08756
665.476	41062.84206
665.675	40932.30699
665.873	41069.05918
666.071	40625.83362
666.269	40897.09116
666.467	40982.02917
666.665	40982.02917
666.863	40158.31598
667.061	40261.70061
667.259	40106.63382
667.457	40454.06888
667.655	40375.45526
667.853	40799.74714
668.051	40791.46371
668.249	40741.76702
668.447	40300.99392
668.645	40336.15444
668.843	40489.24333
669.041	40267.90456
669.239	39633.53347
669.437	39674.83051
669.635	39997.08982
669.833	40038.42365
670.031	39908.23647
670.229	39957.82663
670.426	39916.50108
670.624	40158.31598
670.822	40286.51698
671.02	40418.89765
671.218	40112.83532
671.415	39970.22512
671.613	40323.74449
671.811	40065.29293
672.009	40201.73422
672.206	40098.3653
672.404	40381.66102
672.602	40338.22281
672.799	40348.5648
672.997	41027.61374
673.195	40911.59139
673.392	40522.35164
673.59	40425.10411
673.788	40189.32852
673.985	40181.05827
674.183	40462.34493
674.38	40598.9256
674.578	40524.421
674.775	40230.68237
674.973	40243.08937
675.17	40913.6629
675.368	40431.31066
675.565	40119.03692
675.763	40514.07429
675.96	39848.32313
676.158	39759.50229
676.355	39472.51394
676.553	40522.35164
676.75	40288.58508
676.947	39875.17974
677.145	39113.53483
677.342	39899.97204
677.539	39759.50229
677.737	40005.35625
677.934	39270.29375
678.131	39676.89547
678.329	39778.09111
678.526	40088.02989
678.723	40619.62391
678.92	39972.29157
679.118	39773.96018
679.315	39544.75867
679.512	39844.1915
679.709	40001.22302
679.906	39550.95165
680.104	39445.68332
680.301	39466.32211
680.498	38989.81706
680.695	39226.97318
680.892	40007.42288
681.089	39501.41035
681.286	39429.173
681.483	38878.5002
681.68	39311.55546
681.877	38913.54144
682.075	38744.54372
682.272	38969.20075
682.469	38989.81706
682.665	38662.12825
682.862	38583.84698
683.059	38067.09721
683.256	38587.96672
683.453	38913.54144
683.65	38629.16613
683.847	39276.48276
684.044	38870.25559
684.241	38480.86502
684.438	38725.99896
684.635	38402.61352
684.831	39066.10563
685.028	38478.8056
685.225	39123.8462
685.422	38725.99896
685.619	38884.68375
685.815	38765.14987
686.012	38697.15304
686.209	38174.10854
686.405	38711.57578
686.602	38250.26511
686.799	38357.3158
686.996	38798.12162
687.192	38622.98599
687.389	38662.12825
687.586	38242.03141
687.782	38592.0865
687.979	38163.818
688.175	37766.76144
688.372	38065.03952
688.568	38079.44351
688.765	38141.17956
688.962	38233.79784
689.158	38001.25529
689.355	37964.22293
689.551	38009.48507
689.748	38274.96705
689.944	37947.76495
690.14	37594.04277
690.337	38258.49896
690.533	38371.72825
690.73	37805.83647
690.926	38596.20631
691.123	37682.45137
691.319	38085.61678
691.515	37672.17056
691.712	37579.65203
691.908	37429.59951
692.104	37328.90185
692.301	37353.56085
692.497	36778.45333
692.693	37696.84483
692.889	37968.3375
693.086	37962.16565
693.282	37764.70494
693.478	38188.51565
693.674	37480.98279
693.87	37737.97114
694.067	37809.9498
694.263	37269.31366
694.459	37137.83038
694.655	37596.09862
694.851	37335.0665
695.047	37394.66156
695.243	37620.76943
695.439	37275.47767
695.635	36805.14268
695.831	36852.3651
696.027	36854.41833
696.224	36505.46477
696.42	36934.49963
696.615	37246.71286
696.811	36762.02967
697.007	36439.80033
697.203	36597.81642
697.399	36924.23221
697.595	36723.0252
697.791	36441.85224
697.987	36062.35212
698.183	36515.72542
698.379	36595.76402
698.575	36893.431
698.77	36612.18341
698.966	36706.60299
699.162	37168.64412
699.358	37271.36833
699.554	36632.70822
699.749	36778.45333
699.945	36232.58875
700.141	36622.44573
700.337	36450.05997
700.532	36723.0252
700.728	36480.83984
700.924	36493.15219
701.119	36507.51688
701.315	35883.95433
701.511	35392.03767
701.706	36388.50447
701.902	36136.18468
702.097	36068.50454
702.293	36236.69135
702.489	36294.13021
702.684	36097.21655
702.88	36210.02491
703.075	35754.79631
703.271	36072.60619
703.466	36244.89661
703.662	35801.9467
703.857	35705.59898
704.053	35789.64631
704.248	36111.57298
704.443	36415.17783
704.639	36193.61531
704.834	36386.45271
705.03	35875.75316
705.225	36013.1346
705.42	35855.25064
705.616	35562.1244
705.811	35482.19973
706.006	35287.54382
706.202	35689.20056
706.397	35777.34613
706.592	35539.58075
706.787	35859.3511
706.983	35646.15635
707.178	36140.28672
707.373	36130.03168
707.568	35459.65829
707.763	35545.72895
707.959	35529.33384
708.154	35621.56072
708.349	35297.78775
708.544	35756.84627
708.739	35506.7911
708.934	35234.27738
709.129	35115.46401
709.324	35183.06275
709.519	35492.44604
709.714	34849.21513
709.909	35135.94793
710.104	34157.30593
710.299	34462.26226
710.494	34626.0335
710.689	35099.07721
710.884	35076.54585
711.079	36011.08394
711.274	35592.86677
711.469	35818.34751
711.664	34988.47414
711.859	34892.21937
712.054	34578.94658
712.249	34439.74575
712.443	34769.35527
712.638	34554.38036
712.833	34611.70247
713.028	35168.72319
713.223	35185.11127
713.417	34918.84203
713.612	35369.49869
713.807	35318.27597
714.002	35146.19006
714.196	35310.08062
714.391	35133.89951
714.586	35258.86148
714.78	35176.91719
714.975	35271.1538
715.17	35357.20495
715.364	35476.052
715.559	34869.6931
715.754	34169.58442
715.948	34664.93307
716.143	34767.30766
716.337	34507.29675
716.532	35013.05143
716.726	34943.41747
716.921	34718.16652
717.115	34666.98045
717.31	34658.79093
717.504	34666.98045
717.699	34808.26052
717.893	34386.52681
718.088	34593.27715
718.282	34497.06146
718.476	34177.77015
718.671	33897.44185
718.865	34341.49748
719.059	33480.13716
719.254	33705.13755
719.448	33105.89931
719.642	33304.25371
719.837	33312.43385
720.031	33187.69172
720.225	33081.36244
720.419	33748.09659
720.614	33353.33525
720.808	33586.49621
721.002	32797.17163
721.196	33410.5992
721.39	33482.18245
721.585	33840.15661
721.779	33827.88154
721.973	33525.13419
722.167	33144.75015
722.361	33107.94406
722.555	33099.76505
722.749	33095.67557
722.943	32754.24063
723.137	32684.7356
723.331	32431.26985
723.525	32102.22401
723.719	32476.237
723.913	32500.76499
724.107	32075.65744
724.301	32791.03856
724.495	32527.33736
724.689	33142.70534
724.883	32844.19256
725.077	32445.57746
725.271	32938.23847
725.465	32619.32165
725.659	32484.41296
725.853	33206.09563
726.046	32862.59242
726.24	32081.78816
726.434	31971.43798
726.628	32445.57746
726.822	32271.84947
727.015	32752.19633
727.209	32139.00905
727.403	32551.86604
727.596	32872.81466
727.79	33384.01207
727.984	33334.92947
728.177	33463.77497
728.371	32958.68395
728.565	32850.32583
728.758	32721.53203
728.952	32241.19321
729.146	32443.53351
729.339	32376.08437
729.533	32163.53278
729.726	32128.79092
729.92	32149.22724
730.113	32253.45566
730.307	33263.3537
730.5	32656.11669
730.694	33011.84345
730.887	32592.74792
731.081	33204.05074
731.274	32564.13051
731.468	32329.07578
731.661	32533.4695
731.854	32492.58896
732.048	32376.08437
732.241	32245.28068
732.435	31763.01395
732.628	31857.0067
732.821	32192.14417
733.014	32672.4703
733.208	32042.96059
733.401	32233.01829
733.594	32619.32165
733.788	32619.32165
733.981	32697.00099
734.174	32905.52623
734.367	32555.95419
734.56	32443.53351
734.754	32476.237
734.947	32545.73384
735.14	32625.4541
735.333	32345.42647
735.526	32482.36897
735.719	31906.04794
735.912	32012.30775
736.105	31830.44313
736.298	31818.18314
736.491	31854.96333
736.684	31722.14875
736.877	31703.75963
737.07	31787.53343
737.263	32151.27088
737.456	31912.17818
737.649	31801.83657
737.842	31914.22159
738.035	31822.26979
738.228	31560.73807
738.421	32216.66854
738.614	32085.87531
738.807	31685.37067
739	31413.63886
739.192	31258.3766
739.385	31705.80286
739.578	31399.338
739.771	31773.23037
739.964	31718.06226
740.156	32008.22073
740.349	31881.52719
740.542	31566.86739
740.735	31446.32683
740.927	31760.97068
741.12	31750.75432
741.313	31519.87631
741.505	31793.66333
741.698	31393.20909
741.891	31307.4058
742.083	31489.23043
742.276	32143.09632
742.468	31617.94568
742.661	30978.51831
742.854	30762.00415
743.046	30737.49409
743.239	30894.77041
743.431	31405.46693
743.624	31203.21982
743.816	30753.83411
744.009	31538.26402
744.201	31154.1925
744.393	30839.62065
744.586	30843.70578
744.778	30757.91913
744.971	30978.51831
745.163	31366.65063
745.355	30537.33565
745.548	30451.55724
745.74	30578.1833
745.932	30576.14091
746.125	30931.53749
746.317	31199.13418
746.509	30980.56097
746.702	30782.42935
746.894	30449.51493
747.086	30359.65425
747.278	30684.3896
747.471	30704.8143
747.663	30917.23913
747.855	30884.55742
748.047	30439.30337
748.239	30753.83411
748.431	30753.83411
748.623	30939.70801
748.815	30106.42307
749.008	30106.42307
749.2	30226.90982
749.392	30390.2883
749.584	29742.94474
749.776	30692.55946
749.968	30294.30251
750.16	30296.34473
750.352	30337.18945
750.544	30026.7815
750.736	29798.07682
750.928	30063.53893
751.12	29834.83199
751.311	29773.57357
751.503	29936.93156
751.695	30151.34985
751.887	29973.68809
752.079	30439.30337
752.271	29483.63034
752.463	29732.73518
752.654	29295.79124
752.846	29604.09708
753.038	29281.4995
753.23	29181.45873
753.421	29355.00043
753.613	29054.88013
753.805	29616.34814
753.997	29077.33733
754.188	29355.00043
754.38	28679.25098
754.572	28911.97359
754.763	28822.14922
754.955	28963.01105
755.146	29126.3353
755.338	28879.30995
755.53	28724.16131
755.721	29040.58924
755.913	29095.7115
756.104	29365.209
756.296	29281.4995
756.487	28662.92008
756.679	29022.21533
756.87	28587.39053
757.062	28546.56435
757.253	28934.42999
757.445	28554.72955
757.636	28844.60513
757.827	28532.27529
758.019	28640.4652
758.21	28279.16339
758.401	28219.97026
758.593	28299.57503
758.784	27858.70831
758.975	28099.54571
759.167	28385.30508
759.358	28475.11955
759.549	28477.16081
759.74	27830.13544
759.932	27954.63318
760.123	28036.27334
760.314	27983.20703
760.505	27636.2542
760.696	27783.1948
760.888	28152.61368
761.079	27577.07156
761.27	27648.49902
761.461	28042.39643
761.652	27844.42185
761.843	27203.63294
762.034	27115.89139
762.225	27183.22771
762.416	27328.10772
762.607	27736.25477
762.798	27583.19385
762.989	27630.13181
763.18	27697.4787
763.371	26997.54631
763.562	27073.04178
763.753	27052.63741
763.944	27693.39703
764.135	27373.00145
764.326	27248.52492
764.517	27697.4787
764.708	27305.66109
764.899	27085.28446
765.089	27146.49863
765.28	26852.682
765.471	26709.86517
765.662	27066.92045
765.853	26654.78063
766.043	26607.85763
766.234	26881.24622
766.425	26452.81356
766.615	26979.18283
766.806	26558.89537
766.997	26738.42796
767.187	26089.72083
767.378	26471.17357
767.569	26002.01555
767.759	26154.99198
767.95	26428.33376
768.141	26403.85418
768.331	25934.7091
768.522	25857.20716
768.712	26075.443
768.903	26226.38431
769.093	25708.32944
769.284	25647.14977
769.474	25410.60522
769.665	25347.3954
769.855	25492.16923
770.046	25481.97355
770.236	25573.7365
770.426	25549.26598
770.617	25771.55025
770.807	25677.73938
770.998	25875.56264
771.188	25704.25074
771.378	25522.75658
771.569	25439.15225
771.759	25208.74872
771.949	24866.25375
772.139	24860.13835
772.33	25025.2613
772.52	25135.35159
772.71	25267.87624
772.9	25341.27842
773.09	25237.29281
773.281	25685.89669
773.471	25159.81698
773.661	25174.08861
773.851	24937.60155
774.041	25078.26692
774.231	25269.91515
774.421	25216.90413
774.611	25027.29995
774.802	24876.44611
774.992	24709.29881
775.182	24697.06915
775.372	24915.17765
775.562	24766.37168
775.752	24670.57187
775.942	24116.26628
776.131	24238.52279
776.321	23835.11438
776.511	24046.99198
776.701	24234.44742
776.891	24291.50364
777.081	24497.33078
777.271	24515.67309
777.461	24607.38773
777.651	24118.3038
777.84	23806.59477
778.03	23824.92874
778.22	23387.01702
778.41	23904.37865
778.599	23875.85766
778.789	24157.01736
778.979	24464.72273
779.169	24403.58443
779.358	23855.48588
779.548	24462.68475
779.738	24046.99198
779.927	24059.21662
780.117	24152.9422
780.307	24077.55377
780.496	23837.15152
780.686	23924.75113
780.875	23108.05083
781.065	23647.7104
781.254	23211.89248
781.444	23036.79189
781.633	23215.96487
781.823	23435.89316
782.012	23771.96459
782.202	23765.85347
782.391	23458.29533
782.581	23325.92438
782.77	22955.35811
782.96	22682.59454
783.149	22306.12166
783.338	22354.95442
783.528	22558.44671
783.717	22751.79735
783.906	22491.29028
784.096	22495.36026
784.285	22786.40026
784.474	22371.23247
784.663	22666.31211
784.853	22591.00881
785.042	22737.54938
785.231	22501.46525
785.42	22607.29019
785.61	22684.62986
785.799	22190.15234
785.988	22326.46838
786.177	21783.339
786.366	22251.18733
786.555	22672.41799
786.744	22194.22124
786.933	22194.22124
787.122	22666.31211
787.312	22387.51076
787.501	22068.09243
787.69	21927.74031
787.879	21909.43484
788.068	21724.36378
788.257	21691.82713
788.445	21220.15948
788.634	21704.02826
788.823	21238.45291
789.012	21183.57359
789.201	21092.11464
789.39	21502.72776
789.579	21167.31362
789.768	21478.33032
789.957	21622.69008
790.145	21828.08099
790.334	21590.15657
790.523	21911.46877
790.712	21484.42963
790.9	21494.59522
791.089	21260.812
791.278	21744.69969
791.467	21645.05746
791.655	21216.09432
791.844	21055.53337
792.033	20610.56812
792.221	20925.47738
792.41	20667.44757
792.599	20115.0432
792.787	20706.0462
792.976	20854.36014
793.164	20675.57347
793.353	20742.61471
793.541	20813.72399
793.73	20978.3106
793.918	20598.38009
794.107	20500.88127
794.295	20624.78767
794.484	20982.37481
794.672	21185.60611
794.861	20586.19221
795.049	20557.75441
795.238	20472.44592
795.426	20391.20661
795.614	20549.62947
795.803	20171.89402
795.991	20106.92192
796.179	20541.50461
796.368	20277.48286
796.556	20271.39088
796.744	20484.6324
796.932	20486.66349
797.121	19914.0614
797.309	20165.8027
797.497	19956.69046
797.685	20472.44592
797.874	19711.09129
798.062	20088.6493
798.25	19818.66022
798.438	20080.52824
798.626	19774.00753
798.814	19838.95756
799.002	19552.80369
799.19	19538.59964
799.378	19601.50486
799.566	19877.52368
799.755	19524.39578
799.943	19753.71153
800.131	19784.15569
800.318	20023.68272
800.506	19631.94431
800.694	19709.0618
800.882	19514.2503
801.07	20129.2556
801.258	19696.88495
801.446	19731.38641
801.634	19585.27087
801.822	19907.97168
802.01	19688.76714
802.197	20169.86358
802.385	19834.89806
802.573	19985.11086
802.761	19845.04685
802.949	20076.46774
803.136	19802.42264
803.324	20050.07488
803.512	19550.77453
803.699	19585.27087
803.887	19916.09131
804.075	19694.85549
804.262	19627.88566
804.45	20153.62018
804.638	19938.42063
804.825	20123.16454
805.013	20090.67957
805.201	20307.94329
805.388	19798.36329
805.576	19865.34474
805.763	19410.77232
805.951	19696.88495
806.138	19564.97876
806.326	19700.94388
806.513	19498.01775
806.701	19341.79299
806.888	19504.10492
807.075	19542.65792
807.263	19554.83286
807.45	19684.70826
807.638	19577.15397
807.825	19983.0808
808.012	19581.21241
808.2	19674.56112
808.387	19751.68195
808.574	19855.19574
808.761	19802.42264
808.949	19877.52368
809.136	19463.52445
809.323	19483.81448
809.51	19510.19214
809.698	19329.62066
809.885	19646.14971
810.072	19638.03231
810.259	19901.88201
810.446	19869.40437
810.633	19924.211
810.82	19591.35858
811.008	19808.5117
811.195	20076.46774
811.382	20293.7283
811.569	20096.77042
811.756	19658.32593
811.943	19905.94179
812.13	19518.30848
812.317	19688.76714
812.504	19974.96062
812.691	20407.45394
812.878	20098.80072
813.064	20031.80331
813.251	19745.59325
813.438	19845.04685
813.625	19021.30437
813.812	19386.42613
813.999	19366.13809
814.186	19368.16687
814.372	19094.31812
814.559	19384.3973
814.746	19266.73268
814.933	18881.37599
815.12	18972.63145
815.306	19057.81059
815.493	19015.22013
815.68	19370.19566
815.866	19536.5705
816.053	19278.90423
816.24	19418.88785
816.426	19638.03231
816.613	19447.29273
816.799	19508.16306
816.986	19260.64695
817.173	19282.96145
817.359	18895.57075
817.546	19037.52919
817.732	18850.95931
817.919	19165.30877
818.105	19289.04731
818.292	19366.13809
818.478	19465.55343
818.665	19790.24464
818.851	19542.65792
819.037	19203.84864
819.224	18899.62643
819.41	19069.97962
819.597	18593.46712
819.783	19108.51585
819.969	19218.04792
820.156	18796.21154
820.342	19094.31812
820.528	18820.54352
820.714	18802.29448
820.901	19031.44485
821.087	18753.63194
821.273	19142.99688
821.459	18883.4038
821.646	19017.2482
821.832	18887.45944
822.018	18877.32038
822.204	18344.14465
822.39	18524.54291
822.576	18210.38544
822.762	18167.82908
822.948	18107.03707
823.134	18042.19585
823.32	18145.53829
823.507	18575.22204
823.693	18419.13802
823.879	18733.35656
824.065	18552.92292
824.25	18834.73744
824.436	18524.54291
824.622	18356.30538
824.808	18565.08602
824.994	18739.43913
825.18	18453.59617
825.366	18788.10101
825.552	18404.94968
825.738	18364.41262
825.923	18364.41262
826.109	18623.87628
826.295	18021.93372
826.481	18429.27265
826.667	18589.41263
826.852	18779.99054
827.038	18559.00445
827.224	18498.19071
827.409	17957.09731
827.595	18222.5447
827.781	17797.04776
827.966	17995.59349
828.152	17505.36604
828.338	17408.15367
828.523	17310.94842
828.709	17491.18879
828.894	17118.58318
829.08	17207.6754
829.266	17448.65795
829.451	17440.557
829.637	17072.01442
829.822	17106.43467
830.008	17304.87332
830.193	17556.00037
830.378	17246.14877
830.564	17379.80142
830.749	16989.00416
830.935	17280.57321
831.12	17092.26153
831.305	17153.00452
831.491	17039.61963
831.676	17284.6232
831.861	17069.98973
832.047	17025.44713
832.232	16814.89949
832.417	17120.60794
832.602	17418.27963
832.788	17134.78136
832.973	17412.20405
833.158	17671.45419
833.343	17260.32343
833.528	17021.39787
833.714	16893.85157
833.899	17090.23681
834.084	16616.52342
834.269	17069.98973
834.454	16972.80756
834.639	16995.07793
834.824	16590.2099
835.009	16924.21879
835.194	16501.15149
835.379	16853.36284
835.564	16495.07947
835.749	16671.1758
835.934	16428.28855
836.119	16379.71471
836.304	16486.98348
836.489	16458.64778
836.674	16189.47759
836.859	16256.26115
837.044	16717.73286
837.228	16260.3087
837.413	16537.58397
837.598	16430.31248
837.783	16055.91586
837.968	16238.04726
838.152	15780.7172
838.337	15956.76063
838.522	15738.22525
838.707	15928.43117
838.891	15892.00795
839.076	15934.50174
839.261	15456.97864
839.445	15983.06679
839.63	15752.38918
839.815	16114.60122
839.999	16084.24656
840.184	16355.42821
840.368	16096.38838
840.553	16314.95132
840.737	15752.38918
840.922	16068.05755
841.106	15829.28001
841.291	15837.37387
841.475	15580.40161
841.66	15794.88129
841.844	15214.18431
842.029	15505.53822
842.213	15319.39465
842.397	15402.34947
842.582	15191.92833
842.766	15179.7887
842.951	15090.76477
843.135	15398.30288
843.319	15185.85852
843.504	15175.74216
843.688	15070.53203
843.872	15256.67304
844.056	15125.1604
844.241	15244.5334
844.425	14904.62257
844.609	15266.78942
844.793	15005.78714
844.977	14900.57596
845.161	14748.82652
845.346	15197.99814
845.53	14924.85557
845.714	15074.57858
845.898	14552.55686
846.082	14995.67072
846.266	15078.62513
846.45	15317.37137
846.634	14967.34472
846.818	15076.60186
847.002	14805.48009
847.186	14835.82998
847.37	15007.81042
847.554	15153.48619
847.738	14955.20498
847.922	14951.1584
848.106	15100.88113
848.29	14939.01864
848.473	14655.75137
848.657	14489.82927
848.841	14376.51151
849.025	14479.7118
849.209	14143.78875
849.392	14301.63814
849.576	14068.90708
849.76	13963.66258
849.944	13765.29789
850.127	14238.90453
850.311	13983.90242
850.495	14412.93559
850.678	14275.33071
850.862	14601.11935
851.046	14244.97561
851.229	14319.85079
851.413	14153.90766
851.596	14317.82717
851.78	13913.06185
851.964	14129.62218
852.147	13481.86804
852.331	13824.00047
852.514	13546.65796
852.698	13639.78711
852.881	13257.09715
853.065	13190.2634
853.248	13153.80657
853.431	13380.62603
853.615	13174.06055
853.798	13109.24619
853.982	13263.1727
854.165	13408.97477
854.348	13287.47455
854.532	13338.10144
854.715	13125.45023
854.898	13392.77559
855.081	13228.74402
855.265	13528.43617
855.448	13277.34886
855.631	13259.12234
855.814	13253.04675
855.997	13295.57503
856.181	12866.14774
856.364	12987.70608
856.547	12890.46092
856.73	13062.6579
856.913	12967.44766
857.096	13137.60306
857.279	12884.3827
857.462	13042.40132
857.645	12803.33505
857.828	12679.72009
858.011	12693.90651
858.194	12667.56007
858.377	12278.31919
858.56	12503.37829
858.743	12436.47748
858.926	12904.64326
859.109	12683.77338
859.292	12813.46649
859.475	12570.27208
859.658	12663.50668
859.841	12116.06066
860.023	12258.03943
860.206	12109.97504
860.389	12063.31632
860.572	11870.55129
860.755	12057.2301
860.937	11890.8458
861.12	11929.40309
861.303	12047.08625
861.486	12180.96972
861.668	12225.59031
861.851	12217.47774
862.034	12022.7402
862.216	11927.37383
862.399	11805.60323
862.581	11649.2857
862.764	11551.8141
862.947	11996.36404
863.129	11915.19811
863.312	12069.40247
863.494	11702.07408
863.677	11795.45431
863.859	11943.60766
864.042	11637.1029
864.224	11496.97692
864.406	11324.29548
864.589	11110.88231
864.771	11259.26737
864.954	11135.27824
865.136	11299.91116
865.318	10881.07648
865.501	11068.1857
865.683	10984.81175
865.865	11047.85229
866.048	10927.8627
866.23	10846.49145
866.412	10966.50766
866.594	11074.2855
866.777	11060.05246
866.959	11031.58478
867.141	10860.73275
867.323	10984.81175
867.505	10714.22337
867.687	10765.10163
867.869	10954.30443
868.052	11031.58478
868.234	11055.98578
868.416	10999.04764
868.598	10706.08216
868.78	10805.79889
868.962	10569.68775
869.144	10732.54041
869.326	10710.15279
869.508	10927.8627
869.69	10616.51594
869.872	10758.99663
870.054	10805.79889
870.236	10634.83823
870.417	10608.37238
870.599	10734.57557
870.781	10522.85294
870.963	10506.561
871.145	10241.70055
871.327	10549.32561
871.508	10480.08487
871.69	10777.3113
871.872	10677.58637
872.054	10758.99663
872.235	10665.37317
872.417	11051.91906
872.599	10423.05199
872.78	10689.79914
872.962	10414.90361
873.144	10414.90361
873.325	10286.53883
873.507	10577.83225
873.689	10512.67058
873.87	10567.65159
874.052	10306.91771
874.233	10480.08487
874.415	10447.49589
874.596	10384.34531
874.778	10078.59631
874.959	10225.39409
875.141	10076.55694
875.322	10388.41992
875.503	10200.93277
875.685	10441.38509
875.866	10284.50086
876.048	10545.25303
876.229	10327.29525
876.41	10323.21985
876.592	10119.38071
876.773	10170.35335
876.954	10121.41978
877.136	10441.38509
877.317	10080.63566
877.498	10274.31085
877.679	10137.73186
877.86	10243.73879
878.042	9988.85068
878.223	10241.70055
878.404	10445.45897
878.585	10335.44589
878.766	10005.17013
878.947	10286.53883
879.128	9962.32961
879.309	10182.58549
879.49	10029.64757
879.672	10463.79079
879.853	10174.43078
880.034	10310.99332
880.215	10264.12051
880.396	10461.75398
880.576	10184.62413
880.757	10408.79218
880.938	10374.15856
881.119	10787.48571
881.3	10327.29525
881.481	10950.23659
881.662	10767.1366
881.843	11080.38521
882.023	10830.21498
882.204	10927.8627
882.385	10445.45897
882.566	10315.06888
882.747	10374.15856
882.927	10463.79079
883.108	10225.39409
883.289	10396.56898
883.469	10072.47817
883.65	10502.48789
883.831	10094.91074
884.011	10569.68775
884.192	10205.0098
884.373	10494.34152
884.553	10115.30252
884.734	10363.97148
884.914	10414.90361
885.095	10606.33646
885.275	10402.68064
885.456	10868.87038
885.636	10425.08905
885.817	10588.01261
885.997	10624.6593
886.178	10581.90443
886.358	10211.12523
886.538	10537.10772
886.719	10325.25756
886.899	10437.31116
887.08	10276.34888
887.26	10461.75398
887.44	10096.94999
887.621	10382.30799
887.801	9915.40171
887.981	10211.12523
888.161	10007.20999
888.342	10078.59631
888.522	9948.04802
888.702	10215.20212
888.882	10200.93277
889.062	10416.94072
889.242	10178.50816
889.423	10213.16368
889.603	9903.15837
889.783	10306.91771
889.963	9866.4252
890.143	10339.52114
890.323	10156.08188
890.503	10457.6803
890.683	10335.44589
890.863	10518.78003
891.043	10583.9405
891.223	10815.97247
891.403	10567.65159
891.583	10736.61073
891.763	10416.94072
891.943	10769.17157
892.122	10347.67146
892.302	10803.76414
892.482	10657.23079
892.662	10663.33759
892.842	10539.14406
893.022	10168.31461
893.201	10217.24054
893.381	10294.69054
893.561	10137.73186
893.741	10359.89655
893.92	10068.39933
894.1	9994.97058
894.28	10054.12296
894.459	9931.72533
894.639	9835.81055
894.819	9809.27514
894.998	9731.69553
895.178	9874.58854
895.357	10045.96473
895.537	10029.64757
895.716	10143.84866
895.896	10282.46289
896.075	9956.20902
896.255	10374.15856
896.434	10209.08677
896.614	10404.71784
896.793	9815.39892
896.973	10062.28097
897.152	9862.34344
897.331	10064.32044
897.511	10098.98921
897.69	9992.93063
897.87	9780.69572
898.049	9729.65366
898.228	9662.26354
898.407	9384.35416
898.587	9394.57668
898.766	9529.47591
898.945	9404.79878
899.124	9408.88751
899.304	9400.70999
899.483	9590.77074
899.662	9286.19711
899.841	9441.59499
900.02	8979.20565
900.199	9486.56103
900.378	9110.23591
900.557	9337.32532
900.737	9065.20229
900.916	9384.35416
901.095	9102.0486
901.274	9032.4453
901.453	8813.26683
901.632	9237.10423
901.811	8995.58834
901.989	9249.37836
902.168	9042.68234
902.347	9351.63937
902.526	8887.03189
902.705	9212.55417
902.884	9286.19711
903.063	9261.65188
903.242	8919.80891
903.42	9310.73995
903.599	8905.46953
903.778	9230.96694
903.957	8977.15773
904.135	9173.67825
904.314	8764.07711
904.493	8880.8857
904.672	8829.66109
904.85	8622.59776
905.029	8641.05659
905.207	8628.75087
905.386	8614.39336
905.565	8675.91915
905.743	8515.91702
905.922	8737.42828
906.1	8236.66119
906.279	8433.82004
906.457	8296.23856
906.636	8753.82792
906.814	8372.22715
906.993	8364.01345
907.171	8257.20698
907.35	8423.55576
907.528	8228.44233
907.707	8517.96906
907.885	8107.1771
908.063	8437.92561
908.242	8074.27961
908.42	8495.39564
908.598	7792.38114
908.777	8214.05855
908.955	7932.34972
909.133	8316.77865
909.311	7948.81034
909.49	8216.11343
909.668	7788.26297
909.846	7981.72764
910.024	7769.73014
910.202	8041.37695
910.38	7862.3774
910.559	7685.28129
910.737	7592.55263
910.915	7563.69492
911.093	7545.14132
911.271	7905.59842
911.449	7538.9564
911.627	7557.51058
911.805	7576.06302
911.983	7524.52417
912.161	7099.32653
912.339	7320.29774
912.517	7328.55345
912.695	7446.15936
912.872	7656.43698
913.05	7458.53483
913.228	7109.65795
913.406	7264.56251
913.584	7134.45107
913.762	7064.19554
913.939	6927.74313
914.117	7276.9495
914.295	6998.04904
914.473	7175.76582
914.65	7367.76329
914.828	7270.7561
915.006	6884.30583
915.184	7221.20179
915.361	6828.44317
915.539	6842.92768
915.716	6447.30455
915.894	6627.61403
916.072	6627.61403
916.249	6669.03976
916.427	6575.81889
916.604	6803.61
916.782	6569.6025
916.959	6741.51268
917.137	6468.0387
917.314	6840.85853
917.492	6320.7758
917.669	6273.04569
917.847	6165.08847
918.024	6192.08372
918.201	6071.61272
918.379	6138.08925
918.556	6050.83386
918.733	6158.85823
918.911	5903.23624
919.088	6048.75585
919.265	5568.10246
919.442	6042.52166
919.62	5930.27004
919.797	6380.93963
919.974	5855.39744
920.151	5944.82506
920.328	5909.47516
920.506	5971.85273
920.683	5926.11126
920.86	5890.75776
921.037	5632.67887
921.214	5593.10247
921.391	5805.46538
921.568	6063.30146
921.745	5593.10247
921.922	6009.26908
922.099	5574.35278
922.276	5822.11091
922.453	5472.23767
922.63	5372.15178
922.807	5357.5514
922.984	5413.86082
923.161	5244.88131
923.338	5530.59609
923.514	5322.08855
923.691	5536.84768
923.868	5340.86385
924.045	5449.30611
924.222	5079.92653
924.399	5349.20781
924.575	5071.57054
924.752	5213.57197
924.929	5188.52071
925.105	5232.3582
925.282	5063.21417
925.459	5232.3582
925.635	4889.73619
925.812	5175.99382
925.989	4751.6772
926.165	4801.89194
926.342	4663.77006
926.518	5088.28216
926.695	4670.05046
926.871	4596.76658
927.048	4414.48589
927.224	4630.27118
927.401	4194.27221
927.577	4414.48589
927.754	4223.64769
927.93	4502.50433
928.107	4265.60543
928.283	4653.30228
928.459	4556.97245
928.636	4726.56494
928.812	4299.16545
928.988	4475.26467
929.165	4166.99127
929.341	4401.90867
929.517	3931.80959
929.693	4278.19108
929.87	3757.35905
930.046	4083.02762
930.222	3555.41813
930.398	3980.12688
930.574	3742.64015
930.751	4158.59641
930.927	3814.12299
931.103	3990.62922
931.279	3875.07565
931.455	3917.1022
931.631	3698.47776
931.807	3875.07565
931.983	3662.72105
932.159	3654.30691
932.335	3372.26179
932.511	3492.27622
932.687	3277.47328
932.863	3660.61754
933.039	3212.15449
933.215	3706.8903
933.391	3351.2007
933.566	3368.04971
933.742	3241.65529
933.918	3155.25096
934.094	3066.71098
934.27	3306.96677
934.445	2971.81616
934.621	2990.79759
934.797	2731.28341
934.973	2752.38998
935.148	2530.70756
935.324	2634.17645
935.5	2399.74826
935.675	2543.37875
935.851	2237.05016
936.027	2300.4458
936.202	2089.09691
936.378	2213.80306
936.553	2112.3493
936.729	2215.91648
936.904	1938.99308
937.08	1960.13642
937.255	1867.10149
937.431	1670.43006
937.606	1488.54046
937.782	1556.22162
937.957	1452.58459
938.133	1577.37175
938.308	1272.80799
938.483	1399.70835
938.659	1213.59042
938.834	1353.17761
939.009	1164.94928
939.185	1217.82017
939.36	1145.91634
939.535	1186.09737
939.71	1019.03987
939.886	1211.47555
940.061	1097.2782
940.236	1019.03987
940.411	911.21182
940.586	949.2667
940.761	731.54534
940.937	942.92406
941.112	930.23896
941.287	849.90653
941.462	767.47318
941.637	849.90653
941.812	723.09218
941.987	784.38141
942.162	573.07919
942.337	598.42915
942.512	600.54173
942.687	638.57033
942.862	592.09148
943.037	666.03791
943.212	564.62963
943.386	596.31658
943.561	545.61891
943.736	592.09148
943.911	486.48169
944.086	564.62963
944.26	554.06798
944.435	549.84342
944.61	570.96678
944.785	649.13455
944.959	486.48169
945.134	486.48169
945.309	454.80577
945.483	541.39445
945.658	448.471
945.833	535.05787
946.007	501.26494
946.182	581.52897
946.357	532.94571
946.531	623.78095
946.706	606.87955
946.88	663.92495
947.055	581.52897
947.229	537.17005
947.404	558.2926
947.578	625.89368
947.752	608.99218
947.927	575.19162
948.101	577.30405
948.276	613.21748
948.45	547.73116
948.624	680.82896
948.799	520.27302
948.973	657.58613
949.147	501.26494
949.321	554.06798
949.496	503.37689
949.67	630.11918
949.844	577.30405
950.018	657.58613
950.193	532.94571
950.367	581.52897
950.541	505.48886
950.715	615.33015
950.889	600.54173
951.063	739.99868
951.237	520.27302
951.411	623.78095
951.585	600.54173
951.759	680.82896
951.933	674.48987
952.107	596.31658
952.281	619.55552
952.455	518.16095
952.629	568.85439
952.803	911.21182
952.977	585.75393
953.151	630.11918
953.325	697.73371
953.499	805.51757
953.672	663.92495
953.846	706.18636
954.02	480.14624
954.194	642.79598
954.368	526.6093
954.541	625.89368
954.715	486.48169
954.889	733.65866
955.062	621.66823
955.236	716.75241
955.41	699.84686
955.583	680.82896
955.757	638.57033
955.93	710.41275
956.104	689.28125
956.278	619.55552
956.451	583.64144
956.625	541.39445
956.798	636.45753
956.972	727.31874
957.145	608.99218
957.319	604.76693
957.492	505.48886
957.665	666.03791
957.839	551.95569
958.012	655.47322
958.185	634.34474
958.359	651.24742
958.532	528.72142
958.705	674.48987
958.879	651.24742
959.052	579.4165
959.225	608.99218
959.398	701.96001
959.572	594.20402
959.745	676.60289
959.918	524.49719
960.091	638.57033
960.264	579.4165
960.438	630.11918
960.611	511.82484
960.784	676.60289
960.957	638.57033
961.13	674.48987
961.303	587.86644
961.476	682.94202
961.649	663.92495
961.822	604.76693
961.995	499.153
962.168	579.4165
962.341	537.17005
962.514	583.64144
962.686	444.24789
962.859	431.57895
963.032	452.69416
963.205	589.97895
963.378	551.95569
963.551	497.04108
963.723	389.35331
963.896	520.27302
964.069	486.48169
964.242	524.49719
964.414	416.79924
964.587	587.86644
964.76	469.58744
964.932	532.94571
965.105	478.03445
965.278	672.37686
965.45	499.153
965.623	513.93686
965.795	564.62963
965.968	505.48886
966.14	410.46532
966.313	541.39445
966.485	486.48169
966.658	585.75393
966.83	454.80577
967.003	528.72142
967.175	402.02032
967.348	513.93686
967.52	478.03445
967.692	596.31658
967.865	440.02485
968.037	577.30405
968.209	425.2447
968.382	488.59354
968.554	387.2422
968.726	461.14068
968.898	473.81092
969.071	486.48169
969.243	402.02032
969.415	418.91058
969.587	393.57558
969.759	277.48826
969.932	319.69565
970.104	467.47573
970.276	421.02194
970.448	355.57756
970.62	364.02109
970.792	433.6904
970.964	361.91018
971.136	393.57558
971.308	296.48068
971.48	321.80621
971.652	285.92915
971.824	359.79929
971.996	311.25359
972.168	357.68842
972.339	342.91278
972.511	340.80204
972.683	250.05744
972.855	366.13202
973.027	302.81182
973.199	393.57558
973.37	395.68674
973.542	355.57756
973.714	353.46672
973.886	385.13111
974.057	226.84928
974.229	294.37034
974.401	216.30089
974.572	309.14312
974.744	271.15779
974.915	288.03942
975.087	172.00315
975.259	260.60738
975.43	317.58511
975.602	330.24862
975.773	279.59846
975.945	368.24296
976.116	323.91679
976.288	317.58511
976.459	319.69565
976.63	300.70142
976.802	241.61784
976.973	250.05744
977.145	180.44012
977.316	336.58062
977.487	222.62986
977.659	207.86254
977.83	258.49735
978.001	300.70142
978.172	203.64348
978.344	279.59846
978.515	131.93208
978.686	174.11236
978.857	195.20561
979.028	260.60738
979.2	178.33085
979.371	279.59846
979.542	193.0962
979.713	224.73956
979.884	193.0962
980.055	144.58528
980.226	313.36408
980.397	127.71452
980.568	161.45739
980.739	161.45739
980.91	239.50798
981.081	199.42451
981.252	258.49735
981.423	165.67563
981.594	224.73956
981.765	199.42451
981.936	167.78478
982.106	224.73956
982.277	144.58528
982.448	119.27966
982.619	165.67563
982.79	199.42451
982.96	140.36746
983.131	127.71452
983.302	212.08167
983.472	237.39815
983.643	254.27736
983.814	254.27736
983.984	140.36746
984.155	201.53399
984.326	153.02117
984.496	157.23924
984.667	237.39815
984.837	203.64348
985.008	237.39815
985.178	169.89395
985.349	203.64348
985.519	142.47636
985.69	161.45739
985.86	117.171
986.031	193.0962
986.201	174.11236
986.371	102.41098
986.542	131.93208
986.712	140.36746
986.882	169.89395
987.053	140.36746
987.223	218.41053
987.393	106.62802
987.563	106.62802
987.734	184.65873
987.904	125.60578
988.074	131.93208
988.244	188.87742
988.414	30.7351
988.585	115.06236
988.755	100.3025
988.925	186.76807
989.095	123.49705
989.265	106.62802
989.435	106.62802
989.605	178.33085
989.775	127.71452
989.945	98.19403
990.115	115.06236
990.285	85.54372
990.455	91.86877
990.625	121.38835
990.795	98.19403
990.965	127.71452
991.134	140.36746
991.304	102.41098
991.474	123.49705
991.644	64.46165
991.814	70.78603
991.984	98.19403
992.153	129.82329
992.323	115.06236
992.493	70.78603
992.662	66.56975
992.832	64.46165
993.002	106.62802
993.171	112.95374
993.341	165.67563
993.511	75.0024
993.68	81.32712
993.85	64.46165
994.019	89.7604
994.189	106.62802
994.358	140.36746
994.528	102.41098
994.697	144.58528
994.867	98.19403
995.036	85.54372
995.206	85.54372
995.375	47.59764
995.544	136.14973
995.714	148.80318
995.883	131.93208
996.052	72.8942
996.222	85.54372
996.391	-7.20006
996.56	106.62802
996.73	39.16618
996.899	81.32712
997.068	60.24551
997.237	75.0024
997.406	127.71452
997.576	51.8135
997.745	-2.98542
997.914	56.02946
998.083	-0.87807
998.252	30.7351
998.421	28.62739
998.59	89.7604
998.759	72.8942
998.928	100.3025
999.097	22.3044
999.266	-59.87469
999.435	102.41098
999.604	43.38186
999.773	45.48974
999.942	53.92147
1000.111	125.60578
1000.28	62.35357
1000.448	64.46165
1000.617	108.73657
1000.786	72.8942
1000.955	30.7351
1001.124	115.06236
1001.292	15.98162
1001.461	41.27401
1001.63	100.3025
1001.798	144.58528
1001.967	18.08919
1002.136	5.44413
1002.304	85.54372
1002.473	129.82329
1002.642	-24.05762
1002.81	58.13747
1002.979	32.84284
1003.147	56.02946
1003.316	110.84515
1003.484	-0.87807
1003.653	26.51971
1003.821	49.70556
1003.99	81.32712
1004.158	39.16618
1004.327	79.21886
1004.495	87.65205
1004.663	-0.87807
1004.832	-9.30734
1005	34.9506
1005.168	3.33671
1005.337	77.11062
1005.505	-34.5928
1005.673	28.62739
1005.842	81.32712
1006.01	115.06236
1006.178	66.56975
1006.346	51.8135
1006.514	66.56975
1006.683	58.13747
1006.851	-11.4146
1007.019	87.65205
1007.187	62.35357
1007.355	1.22931
1007.523	58.13747
1007.691	34.9506
1007.859	9.65906
1008.027	20.19678
1008.195	68.67788
1008.363	41.27401
1008.531	51.8135
1008.699	24.41204
1008.867	43.38186
1009.035	47.59764
1009.203	75.0024
1009.37	-24.05762
1009.538	104.51949
1009.706	47.59764
1009.874	13.87408
1010.042	-7.20006
1010.209	11.76656
1010.377	72.8942
1010.545	-36.69976
1010.713	-19.84338
1010.88	-15.62904
1011.048	39.16618
1011.216	47.59764
1011.383	-11.4146
1011.551	30.7351
1011.718	22.3044
1011.886	83.43541
1012.054	-26.16471
1012.221	13.87408
1012.389	123.49705
1012.556	64.46165
1012.724	7.55158
1012.891	72.8942
1013.058	11.76656
1013.226	-5.09275
1013.393	-34.5928
1013.561	-15.62904
1013.728	-53.55456
1013.895	49.70556
1014.063	81.32712
1014.23	34.9506
1014.397	43.38186
1014.565	41.27401
1014.732	30.7351
1014.899	75.0024
1015.066	41.27401
1015.233	30.7351
1015.401	41.27401
1015.568	62.35357
1015.735	53.92147
1015.902	-7.20006
1016.069	131.93208
1016.236	30.7351
1016.403	7.55158
1016.57	22.3044
1016.737	22.3044
1016.904	9.65906
1017.071	-9.30734
1017.238	-2.98542
1017.405	66.56975
1017.572	11.76656
1017.739	-11.4146
1017.906	-26.16471
1018.073	15.98162
1018.24	41.27401
1018.407	32.84284
1018.573	115.06236
1018.74	56.02946
1018.907	5.44413
1019.074	77.11062
1019.241	13.87408
1019.407	45.48974
1019.574	-13.52183
1019.741	51.8135
1019.907	-36.69976
1020.074	9.65906
1020.241	-32.48582
1020.407	-49.34101
1020.574	-19.84338
1020.74	13.87408
1020.907	-0.87807
1021.073	24.41204
1021.24	-36.69976
1021.406	22.3044
1021.573	7.55158
1021.739	-19.84338
1021.906	1.22931
1022.072	15.98162
1022.239	15.98162
1022.405	72.8942
1022.571	-34.5928
1022.738	13.87408
1022.904	75.0024
1023.07	30.7351
1023.237	49.70556
1023.403	47.59764
1023.569	-9.30734
1023.735	24.41204
1023.902	5.44413
1024.068	-28.27177
1024.234	72.8942
1024.4	72.8942
1024.566	66.56975
1024.732	77.11062
1024.898	5.44413
1025.065	56.02946
1025.231	5.44413
1025.397	72.8942
1025.563	68.67788
1025.729	11.76656
1025.895	39.16618
1026.061	5.44413
1026.227	9.65906
1026.392	5.44413
1026.558	47.59764
1026.724	89.7604
1026.89	72.8942
1027.056	98.19403
1027.222	-15.62904
1027.388	24.41204
1027.553	-21.95051
1027.719	64.46165
1027.885	26.51971
1028.051	64.46165
1028.216	60.24551
1028.382	-26.16471
1028.548	13.87408
1028.713	47.59764
1028.879	22.3044
1029.045	15.98162
1029.21	39.16618
1029.376	58.13747
1029.541	7.55158
1029.707	13.87408
1029.873	45.48974
1030.038	47.59764
1030.204	51.8135
1030.369	5.44413
1030.534	-9.30734
1030.7	-13.52183
1030.865	-7.20006
1031.031	18.08919
1031.196	26.51971
1031.361	15.98162
1031.527	13.87408
1031.692	-28.27177
1031.857	-11.4146
1032.023	34.9506
1032.188	100.3025
1032.353	-0.87807
1032.518	-7.20006
1032.684	75.0024
1032.849	32.84284
1033.014	9.65906
1033.179	26.51971
1033.344	-17.73622
1033.509	81.32712
1033.674	83.43541
1033.839	-19.84338
1034.004	13.87408
1034.17	5.44413
1034.335	-26.16471
1034.5	-57.768
1034.664	-9.30734
1034.829	5.44413
1034.994	-40.91361
1035.159	-19.84338
1035.324	22.3044
1035.489	30.7351
1035.654	-26.16471
1035.819	15.98162
1035.984	30.7351
1036.148	-15.62904
1036.313	39.16618
1036.478	30.7351
1036.643	-11.4146
1036.807	68.67788
1036.972	39.16618
1037.137	1.22931
1037.301	7.55158
1037.466	-2.98542
1037.631	-45.12736
1037.795	-36.69976
1037.96	108.73657
1038.124	41.27401
1038.289	60.24551
1038.454	24.41204
1038.618	30.7351
1038.783	13.87408
1038.947	1.22931
1039.111	-2.98542
1039.276	-11.4146
1039.44	13.87408
1039.605	15.98162
1039.769	-43.0205
1039.933	-2.98542
1040.098	39.16618
1040.262	41.27401
1040.426	-2.98542
1040.591	60.24551
1040.755	5.44413
1040.919	9.65906
1041.083	-11.4146
1041.248	-0.87807
1041.412	-11.4146
1041.576	72.8942
1041.74	47.59764
1041.904	-34.5928
1042.068	5.44413
1042.232	-13.52183
1042.397	15.98162
1042.561	81.32712
1042.725	-7.20006
1042.889	56.02946
1043.053	-11.4146
1043.217	60.24551
1043.381	87.65205
1043.544	1.22931
1043.708	-0.87807
1043.872	70.78603
1044.036	9.65906
1044.2	56.02946
1044.364	-19.84338
1044.528	41.27401
1044.691	-32.48582
1044.855	39.16618
1045.019	47.59764
1045.183	-7.20006
1045.346	49.70556
1045.51	41.27401
1045.674	13.87408
1045.837	1.22931
1046.001	3.33671
1046.165	75.0024
1046.328	9.65906
1046.492	66.56975
1046.655	32.84284
1046.819	13.87408
1046.983	9.65906
1047.146	22.3044
1047.31	-43.0205
1047.473	56.02946
1047.636	43.38186
1047.8	47.59764
1047.963	13.87408
1048.127	-17.73622
1048.29	47.59764
