Data from mixed_try1_USB4F045381__19__00041.txt Node

Date: Thu Apr 03 19:33:49 EDT 2025
User: mmckonesweet
Spectrometer: USB4F04538
Trigger mode: 4
Integration Time (sec): 2.700000E-3
Scans to average: 1
Electric dark correction enabled: true
Nonlinearity correction enabled: true
Boxcar width: 0
XAxis mode: Wavelengths
Number of Pixels in Spectrum: 3648
>>>>>Begin Spectral Data<<<<<
345.52	-15.62904
345.736	-15.62904
345.952	-15.62904
346.168	-9.30734
346.384	18.08919
346.6	9.65906
346.816	-36.69976
347.032	-28.27177
347.248	-11.4146
347.464	18.08919
347.68	83.43541
347.896	-26.16471
348.112	24.41204
348.328	-11.4146
348.544	7.55158
348.76	7.55158
348.975	-36.69976
349.191	-28.27177
349.407	-36.69976
349.623	15.98162
349.839	22.3044
350.055	-49.34101
350.27	-0.87807
350.486	-83.04654
350.702	-24.05762
350.918	-99.89684
351.133	3.33671
351.349	28.62739
351.565	-40.91361
351.781	22.3044
351.996	22.3044
352.212	9.65906
352.428	13.87408
352.644	-53.55456
352.859	58.13747
353.075	-15.62904
353.291	13.87408
353.506	-9.30734
353.722	-74.62077
353.938	-15.62904
354.153	-36.69976
354.369	-57.768
354.584	-32.48582
354.8	-7.20006
355.016	26.51971
355.231	20.19678
355.447	-95.68442
355.662	15.98162
355.878	-34.5928
356.093	-2.98542
356.309	37.05838
356.524	5.44413
356.74	11.76656
356.955	-49.34101
357.171	-36.69976
357.386	-0.87807
357.602	-53.55456
357.817	18.08919
358.033	-19.84338
358.248	-26.16471
358.464	15.98162
358.679	-2.98542
358.895	24.41204
359.11	34.9506
359.325	-116.74546
359.541	108.73657
359.756	9.65906
359.972	9.65906
360.187	7.55158
360.402	-11.4146
360.618	5.44413
360.833	5.44413
361.048	30.7351
361.264	13.87408
361.479	72.8942
361.694	-34.5928
361.909	-68.30117
362.125	-24.05762
362.34	-87.25927
362.555	-2.98542
362.77	30.7351
362.986	56.02946
363.201	26.51971
363.416	15.98162
363.631	-97.79065
363.847	-9.30734
364.062	-15.62904
364.277	-19.84338
364.492	-53.55456
364.707	-2.98542
364.922	66.56975
365.138	22.3044
365.353	-7.20006
365.568	26.51971
365.783	64.46165
365.998	-30.3788
366.213	89.7604
366.428	47.59764
366.643	47.59764
366.858	-7.20006
367.073	5.44413
367.288	-13.52183
367.503	-15.62904
367.718	-0.87807
367.933	-68.30117
368.148	13.87408
368.363	-9.30734
368.578	47.59764
368.793	1.22931
369.008	39.16618
369.223	9.65906
369.438	-7.20006
369.653	13.87408
369.868	39.16618
370.083	39.16618
370.298	-5.09275
370.513	30.7351
370.728	-28.27177
370.943	-11.4146
371.157	24.41204
371.372	-21.95051
371.587	-43.0205
371.802	9.65906
372.017	-78.83371
372.232	-28.27177
372.446	-66.19459
372.661	-19.84338
372.876	-28.27177
373.091	-36.69976
373.306	-34.5928
373.52	13.87408
373.735	-7.20006
373.95	58.13747
374.165	51.8135
374.379	-24.05762
374.594	18.08919
374.809	-34.5928
375.023	1.22931
375.238	-34.5928
375.453	-43.0205
375.667	-24.05762
375.882	15.98162
376.097	-5.09275
376.311	3.33671
376.526	56.02946
376.741	-11.4146
376.955	-26.16471
377.17	-28.27177
377.384	15.98162
377.599	-45.12736
377.813	-17.73622
378.028	13.87408
378.242	-9.30734
378.457	-49.34101
378.672	-49.34101
378.886	41.27401
379.101	-36.69976
379.315	-9.30734
379.53	47.59764
379.744	-80.94014
379.958	-7.20006
380.173	24.41204
380.387	1.22931
380.602	-30.3788
380.816	66.56975
381.031	-45.12736
381.245	-30.3788
381.459	26.51971
381.674	13.87408
381.888	18.08919
382.103	5.44413
382.317	93.97717
382.531	13.87408
382.746	9.65906
382.96	-19.84338
383.174	47.59764
383.388	1.22931
383.603	32.84284
383.817	-15.62904
384.031	34.9506
384.246	85.54372
384.46	9.65906
384.674	72.8942
384.888	-7.20006
385.103	39.16618
385.317	15.98162
385.531	-11.4146
385.745	-2.98542
385.959	7.55158
386.174	-19.84338
386.388	37.05838
386.602	-2.98542
386.816	-19.84338
387.03	-32.48582
387.244	-2.98542
387.458	1.22931
387.672	9.65906
387.887	-0.87807
388.101	-85.15292
388.315	-57.768
388.529	-30.3788
388.743	-43.0205
388.957	-17.73622
389.171	5.44413
389.385	-34.5928
389.599	-49.34101
389.813	-19.84338
390.027	-9.30734
390.241	24.41204
390.455	-40.91361
390.669	13.87408
390.883	24.41204
391.097	18.08919
391.311	-26.16471
391.525	51.8135
391.738	-36.69976
391.952	-51.44779
392.166	-2.98542
392.38	9.65906
392.594	22.3044
392.808	9.65906
393.022	-40.91361
393.236	-26.16471
393.449	-24.05762
393.663	13.87408
393.877	24.41204
394.091	-7.20006
394.305	-7.20006
394.518	-49.34101
394.732	-68.30117
394.946	18.08919
395.16	81.32712
395.373	41.27401
395.587	22.3044
395.801	-28.27177
396.015	-28.27177
396.228	5.44413
396.442	-7.20006
396.656	15.98162
396.869	13.87408
397.083	-104.10916
397.297	51.8135
397.51	-17.73622
397.724	-47.2342
397.938	-17.73622
398.151	32.84284
398.365	-36.69976
398.578	22.3044
398.792	89.7604
399.005	-2.98542
399.219	64.46165
399.433	7.55158
399.646	15.98162
399.86	1.22931
400.073	-5.09275
400.287	1.22931
400.5	24.41204
400.714	-55.66129
400.927	-24.05762
401.141	68.67788
401.354	-28.27177
401.567	41.27401
401.781	-49.34101
401.994	26.51971
402.208	51.8135
402.421	-78.83371
402.635	-80.94014
402.848	41.27401
403.061	-55.66129
403.275	3.33671
403.488	-70.40773
403.701	-95.68442
403.915	39.16618
404.128	34.9506
404.341	-32.48582
404.555	-87.25927
404.768	7.55158
404.981	-26.16471
405.195	37.05838
405.408	-38.8067
405.621	-0.87807
405.834	-0.87807
406.048	51.8135
406.261	70.78603
406.474	5.44413
406.687	-34.5928
406.9	-64.08798
407.114	-28.27177
407.327	49.70556
407.54	22.3044
407.753	-15.62904
407.966	58.13747
408.179	-15.62904
408.392	-17.73622
408.605	-45.12736
408.819	13.87408
409.032	-47.2342
409.245	-28.27177
409.458	28.62739
409.671	-49.34101
409.884	9.65906
410.097	-40.91361
410.31	-26.16471
410.523	49.70556
410.736	60.24551
410.949	-28.27177
411.162	9.65906
411.375	-36.69976
411.588	43.38186
411.801	15.98162
412.014	-24.05762
412.227	30.7351
412.44	45.48974
412.653	-36.69976
412.865	30.7351
413.078	39.16618
413.291	-64.08798
413.504	30.7351
413.717	9.65906
413.93	-102.00301
414.143	28.62739
414.356	-66.19459
414.568	-19.84338
414.781	13.87408
414.994	58.13747
415.207	34.9506
415.42	-11.4146
415.632	5.44413
415.845	81.32712
416.058	9.65906
416.271	-11.4146
416.483	-7.20006
416.696	3.33671
416.909	-61.98135
417.121	26.51971
417.334	15.98162
417.547	43.38186
417.759	37.05838
417.972	18.08919
418.185	51.8135
418.397	-51.44779
418.61	-49.34101
418.823	-19.84338
419.035	-9.30734
419.248	24.41204
419.46	22.3044
419.673	1.22931
419.885	-61.98135
420.098	5.44413
420.311	-2.98542
420.523	-36.69976
420.736	39.16618
420.948	32.84284
421.161	-19.84338
421.373	-53.55456
421.586	-78.83371
421.798	13.87408
422.01	9.65906
422.223	15.98162
422.435	30.7351
422.648	-15.62904
422.86	1.22931
423.073	13.87408
423.285	13.87408
423.497	-55.66129
423.71	-2.98542
423.922	22.3044
424.134	-95.68442
424.347	-38.8067
424.559	24.41204
424.771	13.87408
424.984	56.02946
425.196	-11.4146
425.408	85.54372
425.621	11.76656
425.833	-34.5928
426.045	20.19678
426.257	68.67788
426.47	-0.87807
426.682	1.22931
426.894	-2.98542
427.106	-24.05762
427.318	30.7351
427.531	9.65906
427.743	24.41204
427.955	-19.84338
428.167	-24.05762
428.379	5.44413
428.591	39.16618
428.804	-11.4146
429.016	77.11062
429.228	-15.62904
429.44	-9.30734
429.652	75.0024
429.864	75.0024
430.076	18.08919
430.288	-87.25927
430.5	3.33671
430.712	13.87408
430.924	-28.27177
431.136	47.59764
431.348	5.44413
431.56	-43.0205
431.772	72.8942
431.984	26.51971
432.196	49.70556
432.408	26.51971
432.62	-19.84338
432.832	-2.98542
433.044	-11.4146
433.256	34.9506
433.468	-2.98542
433.679	-15.62904
433.891	-36.69976
434.103	45.48974
434.315	-49.34101
434.527	26.51971
434.739	-36.69976
434.95	-45.12736
435.162	72.8942
435.374	39.16618
435.586	13.87408
435.798	22.3044
436.009	26.51971
436.221	100.3025
436.433	49.70556
436.645	22.3044
436.856	-15.62904
437.068	39.16618
437.28	5.44413
437.491	39.16618
437.703	15.98162
437.915	30.7351
438.126	-0.87807
438.338	-17.73622
438.55	34.9506
438.761	-57.768
438.973	-28.27177
439.184	5.44413
439.396	9.65906
439.608	66.56975
439.819	22.3044
440.031	37.05838
440.242	-53.55456
440.454	30.7351
440.665	-2.98542
440.877	45.48974
441.088	-7.20006
441.3	28.62739
441.511	56.02946
441.723	41.27401
441.934	49.70556
442.146	85.54372
442.357	24.41204
442.569	123.49705
442.78	89.7604
442.991	-17.73622
443.203	20.19678
443.414	-32.48582
443.626	56.02946
443.837	13.87408
444.048	41.27401
444.26	22.3044
444.471	30.7351
444.682	26.51971
444.894	30.7351
445.105	30.7351
445.316	-11.4146
445.528	-28.27177
445.739	9.65906
445.95	13.87408
446.161	1.22931
446.373	68.67788
446.584	28.62739
446.795	70.78603
447.006	-78.83371
447.217	-21.95051
447.429	18.08919
447.64	5.44413
447.851	66.56975
448.062	81.32712
448.273	-9.30734
448.484	-68.30117
448.695	79.21886
448.907	79.21886
449.118	34.9506
449.329	58.13747
449.54	108.73657
449.751	34.9506
449.962	56.02946
450.173	75.0024
450.384	1.22931
450.595	-26.16471
450.806	81.32712
451.017	-13.52183
451.228	39.16618
451.439	34.9506
451.65	119.27966
451.861	7.55158
452.072	89.7604
452.283	49.70556
452.494	-28.27177
452.705	62.35357
452.915	49.70556
453.126	-9.30734
453.337	20.19678
453.548	5.44413
453.759	-24.05762
453.97	39.16618
454.181	72.8942
454.391	-2.98542
454.602	43.38186
454.813	-11.4146
455.024	56.02946
455.235	30.7351
455.445	24.41204
455.656	20.19678
455.867	85.54372
456.078	30.7351
456.288	22.3044
456.499	91.86877
456.71	-2.98542
456.921	13.87408
457.131	13.87408
457.342	72.8942
457.553	45.48974
457.763	26.51971
457.974	30.7351
458.184	110.84515
458.395	-11.4146
458.606	47.59764
458.816	-11.4146
459.027	68.67788
459.237	41.27401
459.448	39.16618
459.659	41.27401
459.869	-0.87807
460.08	89.7604
460.29	49.70556
460.501	20.19678
460.711	28.62739
460.922	77.11062
461.132	75.0024
461.343	64.46165
461.553	22.3044
461.764	56.02946
461.974	89.7604
462.184	64.46165
462.395	106.62802
462.605	18.08919
462.816	32.84284
463.026	117.171
463.236	53.92147
463.447	81.32712
463.657	49.70556
463.867	-2.98542
464.078	41.27401
464.288	85.54372
464.498	64.46165
464.709	-24.05762
464.919	47.59764
465.129	62.35357
465.339	81.32712
465.55	5.44413
465.76	39.16618
465.97	20.19678
466.18	93.97717
466.391	24.41204
466.601	142.47636
466.811	28.62739
467.021	47.59764
467.231	102.41098
467.441	104.51949
467.651	98.19403
467.862	39.16618
468.072	98.19403
468.282	100.3025
468.492	26.51971
468.702	81.32712
468.912	110.84515
469.122	157.23924
469.332	77.11062
469.542	115.06236
469.752	148.80318
469.962	79.21886
470.172	108.73657
470.382	110.84515
470.592	93.97717
470.802	81.32712
471.012	153.02117
471.222	155.13019
471.432	123.49705
471.642	102.41098
471.852	142.47636
472.062	222.62986
472.272	148.80318
472.482	161.45739
472.691	161.45739
472.901	91.86877
473.111	157.23924
473.321	136.14973
473.531	224.73956
473.741	216.30089
473.95	199.42451
474.16	209.9721
474.37	203.64348
474.58	184.65873
474.79	150.91217
474.999	262.71742
475.209	195.20561
475.419	129.82329
475.628	275.37808
475.838	228.95901
476.048	148.80318
476.258	180.44012
476.467	283.8189
476.677	285.92915
476.886	342.91278
477.096	317.58511
477.306	351.3559
477.515	271.15779
477.725	235.28834
477.935	317.58511
478.144	302.81182
478.354	368.24296
478.563	380.90897
478.773	338.69132
478.982	404.13155
479.192	376.6869
479.401	383.02003
479.611	412.57661
479.82	511.82484
480.03	505.48886
480.239	494.92917
480.449	427.3561
480.658	543.50667
480.868	497.04108
481.077	604.76693
481.287	494.92917
481.496	509.71283
481.705	568.85439
481.915	579.4165
482.124	731.54534
482.333	659.69906
482.543	598.42915
482.752	666.03791
482.961	765.35969
483.171	782.26784
483.38	676.60289
483.589	765.35969
483.799	773.81369
484.008	866.81764
484.217	748.45219
484.426	860.47591
484.636	807.63124
484.845	913.32592
485.054	972.52362
485.263	942.92406
485.472	991.55261
485.682	1006.35331
485.891	868.93157
486.1	1000.01012
486.309	1002.12451
486.518	1211.47555
486.727	993.66698
486.936	1175.52328
487.146	1114.19554
487.355	1173.40847
487.564	1164.94928
487.773	1353.17761
487.982	1183.98254
488.191	1332.02746
488.4	1327.79745
488.609	1332.02746
488.818	1315.10746
489.027	1433.54912
489.236	1367.98279
489.445	1484.31036
489.654	1391.24818
489.863	1494.8856
490.072	1486.42541
490.281	1587.94675
490.49	1484.31036
490.698	1649.28083
490.907	1653.51069
491.116	1664.08531
491.325	1657.74055
491.534	1843.84117
491.743	1704.26825
491.952	1759.25354
492.16	1723.30188
492.369	1943.22179
492.578	1864.98694
492.787	2000.30709
492.996	1864.98694
493.204	1881.90321
493.413	2017.22037
493.622	2089.09691
493.831	2163.07853
494.039	2215.91648
494.248	2019.3345
494.457	2203.23585
494.665	2245.50338
494.874	2353.269
495.083	2247.61667
495.291	2338.47912
495.5	2256.06971
495.709	2475.7943
495.917	2188.4414
496.126	2340.59198
496.335	2321.5758
496.543	2456.7841
496.752	2355.3818
496.96	2496.91569
497.169	2583.5014
497.377	2663.7336
497.586	2509.58798
497.794	2716.50803
498.003	2610.95126
498.211	2758.72169
498.42	2610.95126
498.628	2925.41202
498.837	2845.2428
499.045	2895.87841
499.254	2798.81971
499.462	2933.84967
499.671	2771.38475
499.879	2967.5979
500.087	3037.19147
500.296	3138.38837
500.504	2912.75511
500.713	3176.32773
500.921	3035.08282
501.129	3047.7345
501.338	3148.92761
501.546	3146.8198
501.754	3060.38563
501.962	3210.04717
502.171	3066.71098
502.379	3309.07332
502.587	3237.44109
502.795	3372.26179
503.004	3241.65529
503.212	3330.13788
503.42	3450.1725
503.628	3418.59001
503.837	3391.21527
504.045	3578.56602
504.253	3652.20332
504.461	3572.25318
504.669	3334.35058
504.877	3654.30691
505.085	3694.27138
505.294	3485.96112
505.502	3734.22892
505.71	3706.8903
505.918	3645.89246
506.126	3702.68407
506.334	3586.98287
506.542	3801.51002
506.75	3536.47729
506.958	3992.72962
507.166	3847.75411
507.374	3963.32209
507.582	3772.077
507.79	3990.62922
507.998	3814.12299
508.206	4070.43019
508.414	3936.01152
508.622	3870.87256
508.83	3868.77098
509.037	4190.07538
509.245	3906.59631
509.453	4101.92236
509.661	4095.6243
509.869	4318.04055
510.077	4185.87846
510.285	4120.81541
510.492	4334.81694
510.7	4443.82967
510.908	4284.48362
511.116	4420.7742
511.324	4311.74904
511.531	4464.78689
511.739	4194.27221
511.947	4427.06232
512.155	4414.48589
512.362	4445.92549
512.57	4468.97806
512.778	4515.07522
512.985	4655.39588
513.193	4653.30228
513.401	4479.45563
513.608	4722.37924
513.816	4611.42555
514.024	4797.70788
514.231	4406.10116
514.439	4598.86079
514.646	4686.7972
514.854	4734.93605
515.061	4628.17731
515.269	4981.72018
515.477	4686.7972
515.684	4783.06295
515.892	4801.89194
516.099	4992.17009
516.307	4856.27646
516.514	5234.44545
516.722	5031.87448
516.929	4933.64319
517.136	5004.70922
517.344	4996.34989
517.551	5042.32162
517.759	5309.57064
517.966	5119.61246
518.173	5242.79419
518.381	5054.85743
518.588	5301.22489
518.796	5280.35889
519.003	5378.40874
519.21	5415.94602
519.418	5332.51951
519.625	5330.43336
519.832	5330.43336
520.039	5297.05188
520.247	5407.60506
520.454	5547.26653
520.661	5566.01897
520.868	5430.5418
521.076	5959.37891
521.283	5413.86082
521.49	5680.57575
521.697	5568.10246
521.904	5678.49354
522.112	5638.927
522.319	5788.81834
522.526	5372.15178
522.733	5813.78833
522.94	5863.71813
523.147	5884.5182
523.354	5663.91738
523.561	6200.38915
523.768	5676.4113
523.975	5884.5182
524.183	5753.43836
524.39	6152.62779
524.597	5909.47516
524.804	5973.93162
525.011	5982.24693
525.218	6196.23648
525.425	6380.93963
525.632	6194.16011
525.838	6113.16337
526.045	6356.04663
526.252	6075.76821
526.459	6582.03507
526.666	6221.15109
526.873	6339.44943
527.08	6345.67356
527.287	6347.74822
527.494	6183.77791
527.701	6521.93663
527.907	6503.28142
528.114	6557.16911
528.321	6513.64566
528.528	6650.39932
528.735	6724.94992
528.941	6536.44493
529.148	6515.71843
529.355	6656.61301
529.562	6660.75535
529.768	6958.76366
529.975	6571.67466
530.182	6904.9915
530.388	6499.13557
530.595	6964.96715
530.802	6685.60748
531.008	7076.59545
531.215	6756.0039
531.422	6993.91412
531.628	7155.10956
531.835	7173.7003
532.042	7111.72417
532.248	7272.82059
532.455	6979.44119
532.661	7481.22115
532.868	7208.81123
533.074	7351.25484
533.281	7363.63631
533.487	7446.15936
533.694	7248.04529
533.9	7720.30096
534.107	7359.50924
534.313	7549.26449
534.52	7295.5285
534.726	7755.31454
534.933	7378.08036
535.139	7821.20604
535.345	7600.79692
535.552	7726.48026
535.758	7578.1243
535.965	7639.95265
536.171	7524.52417
536.377	7594.61373
536.584	7796.49924
536.79	7763.55215
536.996	7817.08845
537.203	7823.26481
537.409	7553.38757
537.615	7882.95997
537.821	7724.42052
538.028	8142.12505
538.234	7944.69531
538.44	7975.55605
538.646	7989.95615
538.853	8220.22314
539.059	7891.19242
539.265	8166.79071
539.471	8092.78508
539.677	8214.05855
539.883	8403.02577
540.09	8400.97266
540.296	8355.79944
540.502	8437.92561
540.708	8304.45483
540.914	8337.31678
541.12	8376.33388
541.326	8474.87235
541.532	8368.12034
541.738	8442.03111
541.944	8429.71438
542.15	8528.22894
542.356	8595.93234
542.562	8872.69051
542.768	8431.76722
542.974	8600.03492
543.18	8663.61533
543.386	8753.82792
543.592	8696.42404
543.798	8862.44613
544.004	9001.73156
544.21	8930.05079
544.415	8731.27811
544.621	8981.25354
544.827	8823.51338
545.033	9032.4453
545.239	8762.02731
545.445	9251.42399
545.651	8962.82182
545.856	9206.41627
546.062	8952.58136
546.268	9173.67825
546.474	9036.54017
546.679	8870.64167
546.885	9046.77703
547.091	9067.24946
547.297	8979.20565
547.502	9204.37027
547.708	9083.62615
547.914	9177.77074
548.119	9273.9248
548.325	9447.72718
548.531	8895.22658
548.736	9394.57668
548.942	9314.83019
549.147	9621.41285
549.353	9376.17586
549.559	9666.34826
549.764	9406.84315
549.97	9241.19568
550.175	9674.51753
550.381	9780.69572
550.586	9394.57668
550.792	9355.72895
550.997	9451.81523
551.203	9637.75387
551.408	9678.60207
551.614	9792.94441
551.819	9819.48137
552.025	9923.56364
552.23	10056.16249
552.435	10113.26341
552.641	10031.68727
552.846	10141.80974
553.052	9997.01052
553.257	9999.05044
553.462	10172.39207
553.668	10258.00613
553.873	10260.04427
554.078	10135.6929
554.283	10117.34162
554.489	10266.1586
554.694	10361.93402
554.899	10284.50086
555.105	10198.89424
555.31	10370.08377
555.515	10335.44589
555.72	10520.81649
555.925	10490.26826
556.131	10714.22337
556.336	10374.15856
556.541	10754.92658
556.746	10435.27418
556.951	10494.34152
557.156	10221.31734
557.361	10506.561
557.567	10665.37317
557.772	10879.04215
557.977	10331.3706
558.182	10858.69831
558.387	10744.75122
558.592	10940.06681
558.797	10724.39962
559.002	10840.38786
559.207	10502.48789
559.412	10885.14508
559.617	10797.65981
559.822	11039.71862
560.027	10775.27639
560.232	11005.14857
560.437	11019.38369
560.642	10848.52596
560.847	10881.07648
561.051	10950.23659
561.256	10846.49145
561.461	11218.61948
561.666	11157.63983
561.871	11153.57418
562.076	11102.74999
562.281	11243.00871
562.485	10877.00782
562.69	10781.3811
562.895	10956.33833
563.1	11177.96743
563.305	11019.38369
563.509	11326.32744
563.714	11149.50849
563.919	11373.05978
564.123	11202.35916
564.328	11249.10579
564.533	11005.14857
564.737	11267.39646
564.942	11263.33194
565.147	11576.18399
565.351	11389.31328
565.556	11332.42326
565.761	11368.99631
565.965	11364.9328
566.17	11310.07147
566.374	11610.70572
566.579	11425.88135
566.784	11661.46817
566.988	11608.67511
567.193	11787.33502
567.397	11505.10138
567.602	11827.9301
567.806	11436.03858
568.011	11903.0221
568.215	11880.69865
568.42	11858.37418
568.624	11659.43778
568.828	12053.17259
569.033	11598.52189
569.237	11992.30605
569.442	12047.08625
569.646	11915.19811
569.85	12051.14381
570.055	12274.2633
570.259	12294.5425
570.463	12337.12653
570.668	12318.87661
570.872	11957.81183
571.076	12120.1177
571.281	12381.73509
571.485	11992.30605
571.689	12347.26513
571.893	12235.73085
572.098	12314.82099
572.302	12239.78702
572.506	12294.5425
572.71	12284.40299
572.914	12420.25802
573.119	12377.67991
573.323	12582.43386
573.527	12631.07872
573.731	12527.7041
573.935	12495.26948
574.139	12452.69651
574.343	12397.95557
574.547	12574.32603
574.751	12602.70298
574.955	12789.15081
575.159	12819.54529
575.364	12740.51701
575.568	12406.06565
575.772	12797.25613
575.976	12716.19887
576.18	12618.91784
576.383	12774.96629
576.587	12497.29669
576.791	12845.88616
576.995	12898.56515
577.199	12892.48699
577.403	12943.13687
577.607	12864.1216
577.811	13080.8884
578.015	12866.14774
578.219	13026.1957
578.422	12928.95523
578.626	12987.70608
578.83	12624.99831
579.034	13204.44066
579.238	13230.76928
579.442	13400.87521
579.645	13218.6177
579.849	13078.86281
580.053	13062.6579
580.257	12912.74733
580.46	13024.16997
580.664	13556.78106
580.868	13275.3237
581.071	13297.60014
581.275	13151.78115
581.479	13014.04128
581.682	13078.86281
581.886	13240.89547
582.09	13180.13665
582.293	13394.8005
582.497	13267.22306
582.7	13708.61711
582.904	13856.38705
583.107	13548.68259
583.311	13599.29707
583.515	13540.58407
583.718	13704.56839
583.922	13983.90242
584.125	13587.1498
584.329	13609.41971
584.532	13959.61458
584.735	13631.68921
584.939	13799.71005
585.142	13896.86927
585.346	13870.55596
585.549	13967.71057
585.753	13878.65241
585.956	13917.10997
586.159	14170.09782
586.363	14064.85933
586.566	14246.99929
586.769	14178.19285
586.973	13927.23022
587.176	14358.29928
587.379	14066.8832
587.582	14255.09402
587.786	14180.2166
587.989	14655.75137
588.192	14277.35437
588.395	14305.68541
588.599	14441.26508
588.802	14675.98527
589.005	14006.16596
589.208	14390.67649
589.411	14297.59086
589.615	14303.66177
589.818	14287.47264
590.021	14791.31675
590.224	14406.86494
590.427	14655.75137
590.63	14516.13454
590.833	14463.52377
591.036	14582.90849
591.239	14607.18961
591.442	14321.87441
591.645	14752.87322
591.848	14530.29883
592.051	15003.76385
592.254	14756.91992
592.457	14696.21907
592.66	14696.21907
592.863	15202.04468
593.066	15019.95011
593.269	15066.48548
593.472	14918.78567
593.675	15181.81197
593.878	15145.3931
594.081	15169.67235
594.284	14993.64744
594.486	15226.32394
594.689	15400.32617
594.892	15195.97487
595.095	15295.11529
595.298	15562.19151
595.5	15216.20758
595.703	15501.49157
595.906	15218.23085
596.109	15295.11529
596.311	15040.18289
596.514	15396.27958
596.717	15357.83705
596.92	15651.21926
597.122	15125.1604
597.325	15145.3931
597.528	15161.57927
597.73	15475.18844
597.933	15189.90506
598.136	15432.69896
598.338	15416.51255
598.541	15503.51489
598.743	15495.42161
598.946	15390.2097
599.148	15556.12149
599.351	15327.48778
599.554	15418.53585
599.756	15715.96773
599.959	15728.10818
600.161	15942.59586
600.363	15574.33157
600.566	16053.89224
600.768	15974.97256
600.971	16092.3411
601.173	15979.01967
601.376	16104.48296
601.578	15908.196
601.78	16250.18984
601.983	16047.82142
602.185	16078.17567
602.388	16009.37318
602.59	16144.95624
602.792	15655.26601
602.995	15926.40764
603.197	16021.51467
603.399	16120.6722
603.601	15815.11579
603.804	16244.11854
604.006	15804.99852
604.208	15912.24302
604.41	15914.26653
604.613	16161.14573
604.815	16238.04726
605.017	16250.18984
605.219	16387.81027
605.421	16215.78604
605.623	15857.60861
605.826	16053.89224
606.028	16072.10479
606.23	16238.04726
606.432	15906.17249
606.634	16351.38049
606.836	15976.99611
607.038	16448.52799
607.24	16274.47518
607.442	16436.3843
607.644	16468.76763
607.846	16395.90586
608.048	16404.00149
608.25	16551.75234
608.452	16355.42821
608.654	16553.77641
608.856	16185.43016
609.058	16671.1758
609.26	16215.78604
609.462	16616.52342
609.664	16659.03068
609.866	16833.11886
610.067	16733.92691
610.269	16883.72929
610.471	16371.61918
610.673	16586.1617
610.875	16563.89675
611.077	16865.50936
611.278	16312.9275
611.48	16450.55194
611.682	16442.45614
611.884	17183.37698
612.085	16932.31681
612.287	16829.07009
612.489	16371.61918
612.69	16709.63589
612.892	16733.92691
613.094	16727.85413
613.295	16778.46135
613.497	16776.43703
613.699	16351.38049
613.9	16555.80047
614.102	16557.82454
614.304	16608.42691
614.505	16541.63207
614.707	16699.51473
614.908	16667.12742
615.11	17288.6732
615.311	17393.97747
615.513	16881.70485
615.714	17059.86629
615.916	17063.91566
616.117	16630.6924
616.319	16869.55821
616.52	16897.9005
616.722	17146.93011
616.923	16533.53588
617.124	16869.55821
617.326	16171.26421
617.527	16857.41167
617.729	16895.87603
617.93	17169.20308
618.131	17003.17632
618.333	17365.62551
618.534	17165.15343
618.735	17460.80948
618.937	17189.45154
619.138	16829.07009
619.339	17047.71826
619.54	16948.51299
619.742	17045.6936
619.943	17116.55842
620.144	16873.60708
620.345	17195.52614
620.546	17304.87332
620.748	17493.2141
620.949	17270.44828
621.15	17434.48131
621.351	17110.48416
621.552	17067.96504
621.753	16855.38726
621.954	17323.09869
622.155	17120.60794
622.356	17304.87332
622.558	17367.65063
622.759	17225.8995
622.96	17302.8483
623.161	17343.34939
623.362	17175.27759
623.563	17412.20405
623.764	17335.24908
623.965	17150.97971
624.166	17643.09612
624.366	17254.24856
624.567	17059.86629
624.768	17507.39138
624.969	17229.94933
625.17	17264.37336
625.371	17165.15343
625.572	17349.42466
625.773	17669.42859
625.973	17450.6832
626.174	17474.9864
626.375	17509.41671
626.576	17539.79716
626.777	17616.76421
626.977	17292.72321
627.178	17815.28016
627.379	16962.68478
627.58	17626.8918
627.78	17479.03698
627.981	17446.63271
628.182	17553.97495
628.382	17213.75008
628.583	17404.10331
628.784	17191.4764
628.984	17410.17886
629.185	17900.36841
629.386	17203.62564
629.586	17671.45419
629.787	17722.0952
629.987	17861.87535
630.188	17594.4838
630.388	17673.47979
630.589	17296.77324
630.79	17780.84141
630.99	17616.76421
631.191	18068.53715
631.391	18202.27934
631.591	18054.3533
631.792	17647.14723
631.992	17908.47237
632.193	18092.85274
632.393	18096.90538
632.594	17630.94286
632.794	17519.54345
632.994	17531.69564
633.195	17468.91056
633.395	17675.50539
633.595	17730.19796
633.796	17766.66103
633.996	17754.50655
634.196	17426.38044
634.397	17628.91733
634.597	17681.58222
634.797	17882.1347
634.997	18058.40581
635.198	18350.225
635.398	17906.44637
635.598	18121.22158
635.798	18252.94343
635.998	18098.93171
636.199	18182.01435
636.399	18003.69811
636.599	17570.17834
636.799	17906.44637
636.999	17863.90127
637.199	18210.38544
637.399	18329.9573
637.599	18325.9038
637.799	17813.25433
637.999	18370.49308
638.199	17894.29047
638.399	18309.68997
638.599	18338.06433
638.799	18587.38539
638.999	18003.69811
639.199	18427.24572
639.399	18153.64398
639.599	18676.58758
639.799	18358.33219
639.999	18321.85032
640.199	18009.77662
640.399	18261.0499
640.599	17671.45419
640.799	18512.38028
640.998	18473.86619
641.198	18390.76154
641.398	18182.01435
641.598	18796.21154
641.798	18475.89321
641.997	18388.73468
642.197	18512.38028
642.397	18548.86859
642.597	18293.47637
642.796	18246.86362
642.996	18133.37987
643.196	18301.58314
643.395	18250.91682
643.595	18467.78514
643.795	18398.86903
643.994	18940.18413
644.194	18556.97727
644.394	18674.56017
644.593	18390.76154
644.793	18901.65428
644.992	18704.97168
645.192	18934.10038
645.392	18790.12863
645.591	18840.82061
645.791	18603.60341
645.99	18615.76708
646.19	18755.6595
646.389	18753.63194
646.589	18942.21206
646.788	18682.66982
646.987	18715.10905
647.187	19254.56126
647.386	18828.65431
647.586	19076.06419
647.785	18824.59891
647.984	19396.5703
648.184	18988.8555
648.383	18556.97727
648.582	18654.28632
648.782	19110.54411
648.981	18909.76571
649.18	18676.58758
649.38	18956.40766
649.579	19013.19205
649.778	19082.14879
649.977	19065.92326
650.177	19033.47296
650.376	19013.19205
650.575	19086.20522
650.774	19179.5075
650.973	18889.48726
651.173	19061.86691
651.372	18751.60439
651.571	19256.58982
651.77	19193.70643
651.969	19307.30512
652.168	19242.39
652.367	19159.22366
652.566	19128.79867
652.765	19420.91674
652.964	19181.5359
653.163	19086.20522
653.362	19142.99688
653.561	19343.82172
653.76	19009.13592
653.959	19427.00344
654.158	19435.11911
654.357	19059.83875
654.556	18917.8772
654.755	19222.10489
654.954	19053.75428
655.153	19102.43108
655.352	19094.31812
655.551	19556.86203
655.749	19500.0468
655.948	19323.53455
656.147	19439.17696
656.346	19771.97791
656.545	19627.88566
656.743	19307.30512
656.942	19408.74345
657.141	19577.15397
657.34	19220.0764
657.538	19589.32934
657.737	19218.04792
657.936	19654.26717
658.135	19485.8435
658.333	19562.94957
658.532	19812.5711
658.731	19891.73263
658.929	19640.06166
659.128	19303.2478
659.326	19284.99007
659.525	19524.39578
659.724	19319.47717
659.922	19355.99422
660.121	19500.0468
660.319	19319.47717
660.518	19349.90796
660.716	19729.35688
660.915	19735.44549
661.113	19717.17978
661.312	19508.16306
661.51	19412.80119
661.709	19721.2388
661.907	19546.71621
662.105	19540.62877
662.304	19771.97791
662.502	19558.8912
662.701	19491.93061
662.899	19477.72743
663.097	19556.86203
663.296	19664.4141
663.494	20058.19568
663.692	19686.73769
663.891	19780.09642
664.089	19540.62877
664.287	19938.42063
664.485	19325.56325
664.684	20257.17643
664.882	19607.59267
665.08	20177.98537
665.278	20078.49799
665.476	20031.80331
665.675	19790.24464
665.873	19824.74938
666.071	19660.35531
666.269	19737.47503
666.467	19556.86203
666.665	20072.40725
666.863	19552.80369
667.061	19914.0614
667.259	19857.22553
667.457	20054.13527
667.655	19528.45401
667.853	19745.59325
668.051	19396.5703
668.249	19656.29655
668.447	19498.01775
668.645	19552.80369
668.843	19524.39578
669.041	19702.97336
669.239	19353.96546
669.437	19402.65685
669.635	19694.85549
669.833	19416.85896
670.031	19508.16306
670.229	19491.93061
670.426	19619.76842
670.624	19629.91498
670.822	19321.50586
671.02	20035.86363
671.218	19315.4198
671.415	19776.03716
671.613	19493.95965
671.811	19664.4141
672.009	19741.53413
672.206	19623.82703
672.404	19471.64041
672.602	19784.15569
672.799	19901.88201
672.997	19995.2612
673.195	19932.33077
673.392	20066.31655
673.59	19883.6132
673.788	19648.17907
673.985	19457.43752
674.183	19654.26717
674.38	19778.06678
674.578	19970.90055
674.775	19530.48312
674.973	19640.06166
675.17	19516.27939
675.368	19778.06678
675.565	19603.53413
675.763	19966.84051
675.96	19788.21499
676.158	19571.06635
676.355	19191.678
676.553	20293.7283
676.75	19508.16306
676.947	19471.64041
677.145	19451.35063
677.342	19826.77911
677.539	19552.80369
677.737	19577.15397
677.934	19573.09555
678.131	19800.39296
678.329	19502.07586
678.526	19713.12078
678.723	19869.40437
678.92	19869.40437
679.118	19532.51225
679.315	19745.59325
679.512	19948.57049
679.709	20048.04469
679.906	19682.67882
680.104	19910.00158
680.301	19339.76426
680.498	19327.59196
680.695	19037.52919
680.892	19335.70681
681.089	19078.09239
681.286	19061.86691
681.483	18786.07338
681.68	19562.94957
681.877	19136.91191
682.075	19013.19205
682.272	19005.07981
682.469	19573.09555
682.665	19138.94023
682.862	19015.22013
683.059	19106.48759
683.256	19467.58242
683.453	19086.20522
683.65	19528.45401
683.847	19234.27591
684.044	19443.23484
684.241	18885.43162
684.438	19412.80119
684.635	18954.37971
684.831	19335.70681
685.028	19003.05175
685.225	19096.34635
685.422	18986.82748
685.619	18966.5475
685.815	19130.82697
686.012	19082.14879
686.209	19029.41675
686.405	19370.19566
686.602	18891.51509
686.799	19053.75428
686.996	19410.77232
687.192	19487.87253
687.389	19558.8912
687.586	19347.87921
687.782	19142.99688
687.979	19282.96145
688.175	18871.237
688.372	19049.69798
688.568	19049.69798
688.765	19045.6417
688.962	18942.21206
689.158	19033.47296
689.355	18745.52174
689.551	18660.36844
689.748	18627.9309
689.944	18932.07247
690.14	18682.66982
690.337	19011.16399
690.533	18907.73784
690.73	18946.26793
690.926	19311.36245
691.123	19130.82697
691.319	18852.98706
691.515	19098.37459
691.712	18881.37599
691.908	18946.26793
692.104	19114.60065
692.301	18828.65431
692.497	18619.82168
692.693	18877.32038
692.889	19069.97962
693.086	18634.01286
693.282	18844.87608
693.478	19256.58982
693.674	18696.86186
693.87	18838.79289
694.067	18767.82495
694.263	18771.88013
694.459	18664.4232
694.655	18812.4328
694.851	18773.90772
695.047	18621.84898
695.243	18757.68707
695.439	19017.2482
695.635	18704.97168
695.831	19021.30437
696.027	18869.20921
696.224	18625.90359
696.42	18366.43943
696.615	18753.63194
696.811	18469.81215
697.007	18911.79357
697.203	18550.89575
697.399	18311.71668
697.595	18690.77954
697.791	18996.96762
697.987	18640.09486
698.183	19072.0078
698.379	18425.21879
698.575	18648.20424
698.77	18473.86619
698.966	19061.86691
699.162	18893.54292
699.358	18784.04576
699.554	18652.25896
699.749	18646.17689
699.945	18171.882
700.141	18506.29901
700.337	18498.19071
700.532	18838.79289
700.728	18867.18143
700.924	18790.12863
701.119	18698.88931
701.315	18135.40627
701.511	18084.74748
701.706	18252.94343
701.902	18289.42301
702.097	18417.1111
702.293	18593.46712
702.489	18404.94968
702.684	18650.2316
702.88	18461.70413
703.075	18498.19071
703.271	18246.86362
703.466	18297.52975
703.662	18200.25283
703.857	18364.41262
704.053	18129.32709
704.248	18411.03038
704.443	18617.79438
704.639	18680.6424
704.834	18694.83442
705.03	18263.07653
705.225	18135.40627
705.42	18439.40739
705.616	18552.92292
705.811	18259.02328
706.006	18700.91676
706.202	18173.90846
706.397	18617.79438
706.592	18735.38408
706.787	18522.51579
706.983	18234.70409
707.178	18461.70413
707.373	17807.17684
707.568	18100.95805
707.763	17938.86272
707.959	18244.83702
708.154	18088.8001
708.349	18297.52975
708.544	18561.03164
708.739	18167.82908
708.934	18078.66858
709.129	18165.80263
709.324	17942.91483
709.519	18127.30071
709.714	17965.20166
709.909	17851.74581
710.104	17711.96683
710.299	17827.43526
710.494	17942.91483
710.689	18192.1468
710.884	18080.69488
711.079	18259.02328
711.274	18036.11717
711.469	18250.91682
711.664	17904.42038
711.859	17934.81063
712.054	17839.59047
712.249	17975.33218
712.443	17926.70648
712.638	18032.06474
712.833	17159.07896
713.028	17942.91483
713.223	17238.04903
713.417	17612.7132
713.612	17790.97035
713.807	18135.40627
714.002	18025.98612
714.196	18194.1733
714.391	18054.3533
714.586	18246.86362
714.78	18062.45834
714.975	18036.11717
715.17	17807.17684
715.364	17914.55037
715.559	18246.86362
715.754	17841.61635
715.948	17454.7337
716.143	17774.76408
716.337	17594.4838
716.532	17906.44637
716.726	17817.306
716.921	18275.23637
717.115	18370.49308
717.31	18228.62438
717.504	18076.64229
717.699	18360.35899
717.893	17823.38354
718.088	17849.71991
718.282	17456.75895
718.476	17432.45609
718.671	17345.37448
718.865	17918.6024
719.059	17404.10331
719.254	17707.91551
719.448	17410.17886
719.642	17276.52323
719.837	17466.88528
720.031	17797.04776
720.225	17314.9985
720.419	17659.30065
720.614	17379.80142
720.808	17402.07814
721.002	17341.32431
721.196	17205.65052
721.39	17499.29006
721.585	17391.95231
721.779	17483.08757
721.973	17375.75114
722.167	17221.84968
722.361	17140.85572
722.555	17185.40183
722.749	17051.7676
722.943	16920.16979
723.137	16926.24329
723.331	16742.024
723.525	17144.90531
723.719	17227.92441
723.913	17523.59417
724.107	16831.09448
724.301	17049.74293
724.495	16739.99972
724.689	17221.84968
724.883	16806.80206
725.077	17033.54568
725.271	16974.83213
725.465	16997.10252
725.659	17153.00452
725.853	17292.72321
726.046	17061.89098
726.24	16792.63164
726.434	16883.72929
726.628	17185.40183
726.822	16893.85157
727.015	16982.93042
727.209	16462.69572
727.403	17023.4225
727.596	16859.43609
727.79	16989.00416
727.984	17116.55842
728.177	17527.6449
728.371	17213.75008
728.565	16964.70933
728.758	16865.50936
728.952	17059.86629
729.146	16875.63152
729.339	17367.65063
729.533	17304.87332
729.726	17416.25443
729.92	17691.71034
730.113	17460.80948
730.307	17051.7676
730.5	17359.55017
730.694	17262.3484
730.887	17078.08853
731.081	17529.67027
731.274	17185.40183
731.468	16717.73286
731.661	16760.24257
731.854	16839.19203
732.048	16837.16764
732.241	16950.53752
732.435	16752.1454
732.628	17029.4964
732.821	17302.8483
733.014	17349.42466
733.208	17242.09889
733.401	17489.16348
733.594	17343.34939
733.788	16818.94822
733.981	17278.54821
734.174	17246.14877
734.367	17120.60794
734.56	17387.902
734.754	17527.6449
734.947	17296.77324
735.14	17045.6936
735.333	17355.49996
735.526	16940.41488
735.719	16565.92082
735.912	16646.88565
736.105	16545.68017
736.298	16835.14325
736.491	16810.85077
736.684	16772.3884
736.877	16563.89675
737.07	16883.72929
737.263	16547.70423
737.456	16464.71969
737.649	16497.10348
737.842	16450.55194
738.035	16428.28855
738.228	16640.81316
738.421	16612.47516
738.614	16910.04735
738.807	16673.2
739	16827.04571
739.192	16533.53588
739.385	17084.16265
739.578	16788.58297
739.771	16930.2923
739.964	16742.024
740.156	16810.85077
740.349	16794.65598
740.542	16735.95118
740.735	16671.1758
740.927	16598.30633
741.12	16760.24257
741.313	16626.64411
741.505	16565.92082
741.698	16365.54755
741.891	16325.07048
742.083	16642.83732
742.276	16910.04735
742.468	16541.63207
742.661	16252.21361
742.854	16201.61991
743.046	16559.84861
743.239	16361.49981
743.431	16624.61997
743.624	16379.71471
743.816	16327.09431
744.009	16525.43973
744.201	16446.50404
744.393	16318.99898
744.586	16754.16969
744.778	16195.54874
744.971	16391.85806
745.163	16634.7407
745.355	16292.68935
745.548	16424.24069
745.74	16229.95225
745.932	16290.66555
746.125	16272.45139
746.317	16047.82142
746.509	15918.31357
746.702	15993.1846
746.894	16310.90368
747.086	16254.23738
747.278	16521.39167
747.471	16600.33044
747.663	16505.19951
747.855	16588.1858
748.047	16363.52368
748.239	16614.49929
748.431	16098.41203
748.623	16333.16583
748.815	16189.47759
749.008	16217.80978
749.2	16262.33248
749.392	16035.67982
749.584	15997.23174
749.776	16543.65612
749.968	16399.95367
750.16	16574.01715
750.352	16272.45139
750.544	16408.04931
750.736	16333.16583
750.928	16197.57247
751.12	15934.50174
751.311	15869.74952
751.503	15981.04323
751.695	15892.00795
751.887	16017.4675
752.079	16523.4157
752.271	16011.39676
752.463	16023.53826
752.654	15920.33708
752.846	15914.26653
753.038	15722.03795
753.23	15744.2955
753.421	15738.22525
753.613	15768.57659
753.805	16074.12842
753.997	15970.92545
754.188	15823.20962
754.38	15758.45945
754.572	15669.42967
754.763	15550.05147
754.955	15968.9019
755.146	15885.93745
755.338	15663.35953
755.53	15546.0048
755.721	15590.51836
755.913	15693.71034
756.104	15679.5466
756.296	15566.23819
756.487	15477.21175
756.679	15703.82732
756.87	15450.90871
757.062	15501.49157
757.253	15641.10239
757.445	15489.35165
757.636	15380.09324
757.827	15699.78053
758.019	15367.9535
758.21	15655.26601
758.401	15604.68183
758.593	15143.36983
758.784	14886.41283
758.975	14977.46116
759.167	15119.09058
759.358	15157.53273
759.549	15193.9516
759.74	15068.50876
759.932	14973.41458
760.123	15319.39465
760.314	15147.41637
760.505	15137.30002
760.696	14884.38952
760.888	15106.95095
761.079	15088.7415
761.27	15011.85698
761.461	15319.39465
761.652	15335.58091
761.843	14779.17672
762.034	15282.97563
762.225	14847.9699
762.416	15062.43893
762.607	14900.57596
762.798	15127.18367
762.989	15102.90441
763.18	14965.32143
763.371	14934.97205
763.562	14680.03204
763.753	14894.50605
763.944	14979.48444
764.135	14888.43614
764.326	14965.32143
764.517	14758.94327
764.708	14825.71337
764.899	14813.57341
765.089	14512.08759
765.28	14615.28328
765.471	14558.62721
765.662	14550.53341
765.853	14775.13004
766.043	14253.07034
766.234	14499.94671
766.425	14234.85714
766.615	14591.00222
766.806	14491.85276
766.997	14546.4865
767.187	14485.78228
767.378	14882.36622
767.569	14858.08648
767.759	14518.15801
767.95	14244.97561
768.141	14546.4865
768.331	14131.64598
768.522	14194.38281
768.712	14530.29883
768.903	14578.86163
769.093	14166.05029
769.284	14293.54358
769.474	13991.99829
769.665	14162.00276
769.855	14119.50313
770.046	14313.77992
770.236	13854.36291
770.426	13904.96559
770.617	13864.48358
770.807	13880.67652
770.998	13834.12135
771.188	14095.2172
771.378	13862.45946
771.569	14166.05029
771.759	13809.83111
771.949	14054.73993
772.139	14204.50146
772.33	13708.61711
772.52	14164.02653
772.71	13991.99829
772.9	13947.47053
773.09	13718.73886
773.281	14022.35743
773.471	13781.49195
773.661	13797.68583
773.851	13753.15221
774.041	13404.925
774.231	13793.63738
774.421	13498.06587
774.611	13402.90011
774.802	13338.10144
774.992	13350.2515
775.182	13431.24824
775.372	13611.44423
775.562	13362.40142
775.752	13530.46083
775.942	13279.374
776.131	13439.34757
776.321	13149.75572
776.511	13471.74427
776.701	13228.74402
776.891	13198.36472
777.081	13091.01629
777.271	13143.67941
777.461	13384.6759
777.651	13224.69351
777.84	13305.70053
778.03	13246.97113
778.22	13026.1957
778.41	13137.60306
778.599	12779.01904
778.789	13012.01552
778.979	13340.12646
779.169	13275.3237
779.358	12965.42179
779.548	13293.54992
779.738	13044.427
779.927	13182.16201
780.117	13190.2634
780.307	12910.72132
780.496	13097.09297
780.686	13003.91246
780.875	12631.07872
781.065	12959.34414
781.254	12754.70221
781.444	12807.38765
781.633	12918.82534
781.823	12900.59119
782.012	12728.35805
782.202	12732.41106
782.391	12655.39984
782.581	12371.59707
782.77	12446.61443
782.96	12470.94242
783.149	12172.85651
783.338	12574.32603
783.528	12550.00196
783.717	12440.53228
783.906	12460.80587
784.096	12379.7075
784.285	12450.66916
784.474	12720.25195
784.663	12574.32603
784.853	12375.6523
785.042	12724.30501
785.231	12631.07872
785.42	12351.32052
785.61	12574.32603
785.799	12493.24226
785.988	12333.07104
786.177	12233.70276
786.366	12416.20309
786.555	12355.37589
786.744	12294.5425
786.933	12004.47992
787.122	12371.59707
787.312	12432.42266
787.501	12120.1177
787.69	12075.48855
787.879	12114.03212
788.068	11728.46602
788.257	11608.67511
788.445	11734.55626
788.634	12138.37401
788.823	11706.13448
789.012	11876.63973
789.201	11551.8141
789.39	11631.01138
789.579	11773.12593
789.768	11990.27704
789.957	11967.95743
790.145	11963.89922
790.334	11752.82649
790.523	11882.72809
790.712	11943.60766
790.9	11965.92833
791.089	11301.94324
791.278	11687.86242
791.467	11702.07408
791.655	11836.04871
791.844	11787.33502
792.033	11421.81839
792.221	11346.6465
792.41	11677.71097
792.599	11364.9328
792.787	11509.16356
792.976	11269.4287
793.164	11633.0419
793.353	11563.99922
793.541	11633.0419
793.73	11454.32099
793.918	11200.32658
794.107	11265.3642
794.295	11334.45518
794.484	11283.65413
794.672	11395.40818
794.861	11088.51801
795.049	11375.09151
795.238	11257.23508
795.426	11076.31875
795.614	11236.91154
795.803	11035.65172
795.991	10927.8627
796.179	11243.00871
796.368	11153.57418
796.556	11358.83746
796.744	11108.84924
796.932	11186.09817
797.121	10974.64292
797.309	10925.82864
797.497	10982.77801
797.685	11084.45163
797.874	11141.37698
798.062	11157.63983
798.25	10685.72827
798.438	11206.4243
798.626	10946.16871
798.814	11210.48941
799.002	10836.31875
799.19	11092.58434
799.378	10787.48571
799.566	10887.17937
799.755	10872.93912
799.943	11121.04747
800.131	11171.86926
800.318	10877.00782
800.506	10697.94075
800.694	11027.51779
800.882	10919.7264
801.07	11310.07147
801.258	11116.98143
801.446	11202.35916
801.634	10803.76414
801.822	10618.5518
802.01	10632.80247
802.197	11137.31116
802.385	11092.58434
802.573	11015.31657
802.761	10978.71049
802.949	11167.80376
803.136	10927.8627
803.324	11283.65413
803.512	10811.90307
803.699	11116.98143
803.887	10976.67671
804.075	11308.03943
804.262	11003.11494
804.45	11068.1857
804.638	10897.35063
804.825	11196.26137
805.013	10982.77801
805.201	11200.32658
805.388	11119.01446
805.576	10917.69229
805.763	10695.90536
805.951	10895.3164
806.138	10824.11112
806.326	10651.12387
806.513	10728.47004
806.701	10653.15952
806.888	10716.25865
807.075	10801.72937
807.263	10726.43484
807.45	10980.74425
807.638	10655.19516
807.825	10891.24791
808.012	10608.37238
808.2	11169.83651
808.387	11100.71688
808.574	11013.28299
808.761	10767.1366
808.949	11051.91906
809.136	10862.76717
809.323	10980.74425
809.51	11108.84924
809.698	11277.55758
809.885	10754.92658
810.072	11297.87907
810.259	10958.37222
810.446	11285.6863
810.633	10895.3164
810.82	10946.16871
811.008	10860.73275
811.195	10999.04764
811.382	11375.09151
811.569	11212.52194
811.756	11064.1191
811.943	11198.29398
812.13	11007.18219
812.317	11149.50849
812.504	10999.04764
812.691	11488.85231
812.878	11175.93472
813.064	11088.51801
813.251	10978.71049
813.438	11407.59771
813.625	10982.77801
813.812	10881.07648
813.999	10897.35063
814.186	11011.2494
814.372	10870.90476
814.559	11208.45686
814.746	10797.65981
814.933	10889.21364
815.12	10573.76003
815.306	10661.302
815.493	10398.60622
815.68	10598.19265
815.866	10606.33646
816.053	10771.20652
816.24	10640.94544
816.426	10830.21498
816.613	10779.34621
816.799	11234.87913
816.986	10881.07648
817.173	11019.38369
817.359	10502.48789
817.546	10872.93912
817.732	10649.08821
817.919	11019.38369
818.105	10933.96481
818.292	11015.31657
818.478	10722.3644
818.665	11076.31875
818.851	10893.28216
819.037	10795.62502
819.224	10728.47004
819.41	10927.8627
819.597	10716.25865
819.783	10923.79457
819.969	10437.31116
820.156	10496.37813
820.342	10844.45693
820.528	10775.27639
820.714	10478.04816
820.901	10809.86835
821.087	10632.80247
821.273	10984.81175
821.459	10579.86835
821.646	10964.47382
821.832	10877.00782
822.018	10781.3811
822.204	10449.5328
822.39	10618.5518
822.576	10272.27281
822.762	10282.46289
822.948	10048.00431
823.134	10162.19831
823.32	9899.07715
823.507	10288.57677
823.693	10158.1207
823.879	10543.21672
824.065	10510.63406
824.25	10526.9258
824.436	10343.59633
824.622	10298.76632
824.808	10355.82158
824.994	10437.31116
825.18	10380.27065
825.366	10478.04816
825.552	10119.38071
825.738	10290.61471
825.923	10237.62402
826.109	10274.31085
826.295	10333.40825
826.481	10221.31734
826.667	10015.36931
826.852	10062.28097
827.038	10231.50912
827.224	10390.45721
827.409	10027.60786
827.595	10168.31461
827.781	9825.60492
827.966	9943.96744
828.152	9682.68656
828.338	10211.12523
828.523	9760.28003
828.709	9821.52257
828.894	9513.12821
829.08	9935.80609
829.266	9586.68486
829.451	9699.02386
829.637	9570.34071
829.822	9874.58854
830.008	9476.34216
830.193	9752.11334
830.378	9750.07162
830.564	9897.03651
830.749	9831.72834
830.935	10162.19831
831.12	9703.10803
831.305	9841.93375
831.491	9598.94232
831.676	9846.0158
831.861	9523.34564
832.047	9594.85656
832.232	9425.24177
832.417	9694.93963
832.602	9729.65366
832.788	9721.48605
832.973	9741.90462
833.158	9750.07162
833.343	9650.00898
833.528	9745.98815
833.714	9406.84315
833.899	9621.41285
834.084	9265.74292
834.269	9596.89945
834.454	9261.65188
834.639	9351.63937
834.824	9089.76712
835.009	9480.42975
835.194	9063.15511
835.379	9433.41851
835.564	9278.01564
835.749	9574.42684
835.934	9138.88933
836.119	9284.15177
836.304	9163.44672
836.489	9067.24946
836.674	9081.57912
836.859	9073.39085
837.044	9185.95552
837.228	9339.37024
837.413	9222.78366
837.598	9265.74292
837.783	8940.29222
837.968	8999.68384
838.152	8647.2092
838.337	8686.17183
838.522	8628.75087
838.707	9169.58569
838.891	9112.28269
839.076	8944.38867
839.261	8897.2752
839.445	8923.90571
839.63	9057.01346
839.815	8831.71029
839.999	8968.96589
840.184	9243.24137
840.368	9308.6948
840.553	9089.76712
840.737	8940.29222
840.922	9024.25535
841.106	8745.62825
841.291	8788.67328
841.475	8622.59776
841.66	8663.61533
841.844	8298.29265
842.029	8524.12504
842.213	8581.57273
842.397	8476.92476
842.582	8522.07307
842.766	8661.56463
842.951	8329.10176
843.135	8343.47785
843.319	8212.00364
843.504	8435.87284
843.688	8647.2092
843.872	8491.29113
844.056	8565.16061
844.241	8636.95476
844.425	8261.3159
844.609	8466.6625
844.793	8220.22314
844.977	8561.0574
845.161	8273.64219
845.346	8343.47785
845.53	8269.53351
845.714	8357.85297
845.898	8088.6729
846.082	8316.77865
846.266	8302.40079
846.45	8351.69232
846.634	8189.39838
846.818	8509.76081
847.002	8101.00921
847.186	8292.1303
847.37	8172.95668
847.554	8470.76746
847.738	8187.34324
847.922	8425.60865
848.106	8308.56284
848.29	8263.37033
848.473	8150.34726
848.657	7817.08845
848.841	7590.4915
849.025	7771.78942
849.209	7565.75632
849.392	7983.7848
849.576	7767.67083
849.76	7994.07028
849.944	7946.75284
850.127	7899.42454
850.311	7681.16093
850.495	8039.32036
850.678	7792.38114
850.862	8318.83255
851.046	7510.09088
851.229	7670.85965
851.413	7545.14132
851.596	7817.08845
851.78	7788.26297
851.964	7633.77067
852.147	7454.40976
852.331	7829.44098
852.514	7448.222
852.698	7458.53483
852.881	7155.10956
853.065	7186.09312
853.248	7024.92383
853.431	7219.13675
853.615	7272.82059
853.798	7128.25309
853.982	7078.66203
854.165	6946.35606
854.348	7097.26018
854.532	7543.0797
854.715	7264.56251
854.898	7561.63349
855.081	7066.26225
855.265	7266.62706
855.448	7340.93635
855.631	7458.53483
855.814	7146.84643
855.997	7111.72417
856.181	6838.78936
856.364	7396.64971
856.547	7053.86166
856.73	7388.39688
856.913	6969.1027
857.096	7272.82059
857.279	7198.48515
857.462	7285.20705
857.645	6919.47013
857.828	6993.91412
858.011	6830.51246
858.194	6985.64401
858.377	6490.84358
858.56	6586.17907
858.743	6575.81889
858.926	6818.09642
859.109	6488.77053
859.292	6519.86392
859.475	6445.231
859.658	6849.13498
859.841	6685.60748
860.023	6834.65095
860.206	6559.2414
860.389	6492.91661
860.572	6463.89205
860.755	6563.38591
860.937	6337.37468
861.12	6316.62585
861.303	6673.18183
861.486	6660.75535
861.668	6656.61301
861.851	6669.03976
862.034	6353.97206
862.216	6416.19896
862.399	6192.08372
862.581	6206.61798
862.764	6266.81911
862.947	6685.60748
863.129	6399.60717
863.312	6664.8976
863.494	6494.98962
863.677	6353.97206
863.859	6275.12117
864.042	6341.52416
864.224	6000.955
864.406	6434.86294
864.589	6171.3185
864.771	6366.41912
864.954	5946.90425
865.136	6065.37931
865.318	5734.70502
865.501	5932.3494
865.683	5926.11126
865.865	6046.67781
866.048	5903.23624
866.23	6030.05265
866.412	5903.23624
866.594	6048.75585
866.777	5905.31591
866.959	5876.19845
867.141	5824.19149
867.323	5982.24693
867.505	5624.3477
867.687	6000.955
867.869	5655.58763
868.052	5890.75776
868.234	5532.67998
868.416	6050.83386
868.598	5772.16978
868.78	5857.47765
868.962	5682.65794
869.144	6046.67781
869.326	5601.43505
869.508	5757.60106
869.69	5680.57575
869.872	5928.19066
870.054	5672.24675
870.236	6096.54424
870.417	5776.33206
870.599	5755.51972
870.781	5680.57575
870.963	5815.86901
871.145	5522.2603
871.327	5788.81834
871.508	5380.49434
871.69	5718.05156
871.872	5536.84768
872.054	5705.56047
872.235	5415.94602
872.417	5828.35259
872.599	5255.3166
872.78	5763.84494
872.962	5438.88173
873.144	5463.89925
873.325	5171.81801
873.507	5572.26936
873.689	5363.80885
873.87	5495.16639
874.052	5586.85278
874.233	5511.84004
874.415	5390.92201
874.596	5611.85024
874.778	5259.49054
874.959	5399.26372
875.141	5226.09634
875.322	5557.68479
875.503	5334.60563
875.685	5415.94602
875.866	5447.22128
876.048	5397.17833
876.229	5297.05188
876.41	5607.68424
876.592	5413.86082
876.773	5422.2015
876.954	5190.60844
877.136	5415.94602
877.317	5148.84936
877.498	5405.51976
877.679	5194.78384
877.86	5378.40874
878.042	5415.94602
878.223	5663.91738
878.404	5440.96665
878.585	5582.68621
878.766	5315.8297
878.947	5530.59609
879.128	5405.51976
879.309	5374.23746
879.49	5313.74337
879.672	5438.88173
879.853	5284.53228
880.034	5401.34909
880.215	5171.81801
880.396	5407.60506
880.576	5213.57197
880.757	5474.32222
880.938	5476.40674
881.119	5557.68479
881.3	5315.8297
881.481	5676.4113
881.662	5547.26653
881.843	5740.94968
882.023	5572.26936
882.204	5661.83498
882.385	5288.70557
882.566	5507.67177
882.747	5324.17479
882.927	5484.7446
883.108	5428.45676
883.289	5534.76384
883.469	5184.34517
883.65	5480.57572
883.831	5457.64519
884.011	5830.43311
884.192	5495.16639
884.373	5497.25068
884.553	5459.7299
884.734	5607.68424
884.914	5345.03588
885.095	5580.60289
885.275	5468.06851
885.456	5665.99976
885.636	5409.69033
885.817	5921.95238
885.997	5574.35278
886.178	5743.03118
886.358	5476.40674
886.538	5930.27004
886.719	5488.91339
886.899	5693.06854
887.08	5718.05156
887.26	5599.35194
887.44	5363.80885
887.621	5557.68479
887.801	5246.96842
887.981	5367.98036
888.161	5401.34909
888.342	5538.9315
888.522	5365.89462
888.702	5547.26653
888.882	5388.83652
889.062	5674.32904
889.242	5309.57064
889.423	5524.34428
889.603	5399.26372
889.783	5763.84494
889.963	5309.57064
890.143	5591.01926
890.323	5538.9315
890.503	5684.74011
890.683	5455.56045
890.863	5726.37848
891.043	5618.09908
891.223	5532.67998
891.403	5545.18281
891.583	5776.33206
891.763	5532.67998
891.943	5505.5876
892.122	5274.09863
892.302	5634.7616
892.482	5382.57992
892.662	5380.49434
892.842	5215.65942
893.022	5355.46554
893.201	5230.27094
893.381	5422.2015
893.561	5299.1384
893.741	5572.26936
893.92	5457.64519
894.1	5328.3472
894.28	5102.90362
894.459	5336.69172
894.639	5274.09863
894.819	5315.8297
894.998	5274.09863
895.178	5253.22959
895.357	5234.44545
895.537	5365.89462
895.716	5272.01183
895.896	5513.92414
896.075	5134.23148
896.255	5259.49054
896.434	5138.40813
896.614	5378.40874
896.793	4998.43976
896.973	5063.21417
897.152	5000.5296
897.331	5324.17479
897.511	5180.16954
897.69	5188.52071
897.87	4826.9944
898.049	5048.58963
898.228	4858.36787
898.407	5073.65957
898.587	4726.56494
898.766	4873.00706
898.945	4745.39944
899.124	5013.06818
899.304	4749.58464
899.483	4931.55261
899.662	4690.98366
899.841	4847.91062
900.02	4410.29357
900.199	4714.00758
900.378	4468.97806
900.557	4632.36503
900.737	4376.75188
900.916	4519.26534
901.095	4259.31231
901.274	4573.72885
901.453	4196.3706
901.632	4328.52596
901.811	4347.39833
901.989	4437.54208
902.168	4135.50883
902.347	4401.90867
902.526	3915.00106
902.705	4219.45145
902.884	4017.93289
903.063	4280.28861
903.242	4160.69516
903.42	4364.17231
903.599	4062.03149
903.778	4303.36007
903.957	3946.51599
904.135	4280.28861
904.314	3860.36447
904.493	4150.20122
904.672	3923.40549
904.85	3828.83723
905.029	3704.78719
905.207	3797.30554
905.386	3610.12768
905.565	3788.89634
905.743	3363.83756
905.922	3584.87869
906.1	3469.12007
906.279	3738.43458
906.457	3378.57978
906.636	3650.09972
906.814	3241.65529
906.993	3504.90592
907.171	3397.53278
907.35	3384.8976
907.528	3262.72529
907.707	3281.68684
907.885	3117.30869
908.063	3325.9251
908.242	3056.16865
908.42	3264.8322
908.598	2931.74028
908.777	3047.7345
908.955	3041.40873
909.133	3117.30869
909.311	3056.16865
909.49	3064.60254
909.668	2982.36155
909.846	3210.04717
910.024	2927.52145
910.202	3174.22013
910.38	3260.61837
910.559	3410.16733
910.737	3056.16865
910.915	3500.69609
911.093	3134.17257
911.271	3306.96677
911.449	2895.87841
911.627	3047.7345
911.805	2883.22028
911.983	3005.56008
912.161	3013.99546
912.339	3216.36909
912.517	3032.97415
912.695	3414.3787
912.872	3334.35058
913.05	3384.8976
913.228	3212.15449
913.406	3258.51142
913.584	3283.7936
913.762	3302.75362
913.939	3064.60254
914.117	3336.45691
914.295	3066.71098
914.473	3313.28637
914.65	3119.41673
914.828	3355.41306
915.006	3167.89722
915.184	3207.93983
915.361	2950.72426
915.539	3233.22683
915.716	2807.26077
915.894	2990.79759
916.072	2798.81971
916.249	3064.60254
916.427	2824.14223
916.604	2925.41202
916.782	2897.98805
916.959	3216.36909
917.137	2870.56163
917.314	3191.0805
917.492	2982.36155
917.669	3064.60254
917.847	2794.5991
918.024	3089.90273
918.201	2583.5014
918.379	2790.37843
918.556	2541.26691
918.733	2803.04027
918.911	2634.17645
919.088	2857.90247
919.265	2532.81945
919.442	2976.03436
919.62	2727.06194
919.797	3081.46958
919.974	2743.94751
920.151	2828.36246
920.328	2640.51033
920.506	2946.5057
920.683	2743.94751
920.86	2653.17775
921.037	2338.47912
921.214	2511.69999
921.391	2458.89639
921.568	2530.70756
921.745	2380.73462
921.922	2737.61552
922.099	2482.13083
922.276	2551.82598
922.453	2484.24299
922.63	2667.95585
922.807	2169.41936
922.984	2344.81769
923.161	2190.55492
923.338	2330.02754
923.514	2203.23585
923.691	2463.12093
923.868	2406.08596
924.045	2279.31484
924.222	2270.86219
924.399	2359.60737
924.575	2226.48343
924.752	2224.37006
924.929	2160.9649
925.105	2317.34988
925.282	1991.8503
925.459	2137.71448
925.635	1924.19239
925.812	2110.23548
925.989	2188.4414
926.165	2110.23548
926.342	2004.53545
926.518	2089.09691
926.695	1869.21604
926.871	2008.76378
927.048	1881.90321
927.224	1958.02211
927.401	1841.72656
927.577	1892.4757
927.754	1691.57901
927.93	1943.22179
928.107	1807.89227
928.283	2065.84363
928.459	1782.51581
928.636	1790.9747
928.812	1596.40672
928.988	1826.9242
929.165	1708.49796
929.341	1932.64996
929.517	1518.15108
929.693	1765.59785
929.87	1573.14173
930.046	1704.26825
930.222	1509.69092
930.398	1716.95736
930.574	1602.75169
930.751	1670.43006
930.927	1606.98165
931.103	1761.36832
931.279	1433.54912
931.455	1543.53148
931.631	1450.46954
931.807	1454.69964
931.983	1321.45245
932.159	1401.8234
932.335	1300.30255
932.511	1287.61271
932.687	1207.24582
932.863	1274.92295
933.039	1179.7529
933.215	1450.46954
933.391	1274.92295
933.566	1247.42876
933.742	1048.64267
933.918	1133.2279
934.094	1135.34263
934.27	1088.81965
934.445	1031.72664
934.621	1154.37539
934.797	1019.03987
934.973	983.09522
935.148	811.8586
935.324	936.58148
935.5	871.0455
935.675	921.78238
935.851	718.86566
936.027	725.20545
936.202	659.69906
936.378	619.55552
936.553	640.68315
936.729	680.82896
936.904	524.49719
937.08	554.06798
937.255	503.37689
937.431	545.61891
937.606	484.36986
937.782	511.82484
937.957	389.35331
938.133	459.02903
938.308	378.79793
938.483	412.57661
938.659	334.46994
938.834	258.49735
939.009	395.68674
939.185	294.37034
939.36	231.06877
939.535	326.02738
939.71	212.08167
939.886	374.57589
940.061	283.8189
940.236	292.26001
940.411	243.72771
940.586	241.61784
940.761	201.53399
940.937	237.39815
941.112	199.42451
941.287	226.84928
941.462	207.86254
941.637	153.02117
941.812	134.0409
941.987	207.86254
942.162	159.34831
942.337	222.62986
942.512	176.22159
942.687	199.42451
942.862	190.9868
943.037	159.34831
943.212	91.86877
943.386	163.5665
943.561	176.22159
943.736	182.54942
943.911	193.0962
944.086	169.89395
944.26	163.5665
944.435	169.89395
944.61	129.82329
944.785	144.58528
944.959	150.91217
945.134	155.13019
945.309	140.36746
945.483	115.06236
945.658	123.49705
945.833	157.23924
946.007	112.95374
946.182	165.67563
946.357	110.84515
946.531	108.73657
946.706	134.0409
946.88	258.49735
947.055	104.51949
947.229	142.47636
947.404	89.7604
947.578	237.39815
947.752	157.23924
947.927	241.61784
948.101	161.45739
948.276	254.27736
948.45	129.82329
948.624	216.30089
948.799	85.54372
948.973	228.95901
949.147	161.45739
949.321	176.22159
949.496	123.49705
949.67	176.22159
949.844	216.30089
950.018	123.49705
950.193	144.58528
950.367	159.34831
950.541	182.54942
950.715	106.62802
950.889	115.06236
951.063	157.23924
951.237	203.64348
951.411	167.78478
951.585	148.80318
951.759	304.92223
951.933	174.11236
952.107	241.61784
952.281	148.80318
952.455	178.33085
952.629	169.89395
952.803	207.86254
952.977	245.8376
953.151	260.60738
953.325	127.71452
953.499	186.76807
953.672	136.14973
953.846	190.9868
954.02	224.73956
954.194	237.39815
954.368	205.753
954.541	108.73657
954.715	142.47636
954.889	203.64348
955.062	144.58528
955.236	157.23924
955.41	184.65873
955.583	167.78478
955.757	195.20561
955.93	235.28834
956.104	165.67563
956.278	153.02117
956.451	148.80318
956.625	172.00315
956.798	174.11236
956.972	102.41098
957.145	159.34831
957.319	174.11236
957.492	146.69422
957.665	169.89395
957.839	174.11236
958.012	182.54942
958.185	205.753
958.359	138.25859
958.532	176.22159
958.705	258.49735
958.879	58.13747
959.052	182.54942
959.225	167.78478
959.398	224.73956
959.572	224.73956
959.745	207.86254
959.918	131.93208
960.091	176.22159
960.264	77.11062
960.438	193.0962
960.611	155.13019
960.784	216.30089
960.957	180.44012
961.13	220.52019
961.303	224.73956
961.476	125.60578
961.649	131.93208
961.822	216.30089
961.995	98.19403
962.168	190.9868
962.341	131.93208
962.514	250.05744
962.686	186.76807
962.859	102.41098
963.032	136.14973
963.205	125.60578
963.378	163.5665
963.551	155.13019
963.723	91.86877
963.896	157.23924
964.069	224.73956
964.242	169.89395
964.414	131.93208
964.587	193.0962
964.76	159.34831
964.932	72.8942
965.105	144.58528
965.278	190.9868
965.45	184.65873
965.623	72.8942
965.795	89.7604
965.968	174.11236
966.14	72.8942
966.313	142.47636
966.485	150.91217
966.658	119.27966
966.83	115.06236
967.003	163.5665
967.175	231.06877
967.348	125.60578
967.52	144.58528
967.692	218.41053
967.865	125.60578
968.037	146.69422
968.209	190.9868
968.382	131.93208
968.554	169.89395
968.726	165.67563
968.898	140.36746
969.071	100.3025
969.243	140.36746
969.415	93.97717
969.587	148.80318
969.759	83.43541
969.932	112.95374
970.104	39.16618
970.276	100.3025
970.448	134.0409
970.62	91.86877
970.792	110.84515
970.964	106.62802
971.136	131.93208
971.308	148.80318
971.48	110.84515
971.652	167.78478
971.824	134.0409
971.996	51.8135
972.168	91.86877
972.339	144.58528
972.511	140.36746
972.683	153.02117
972.855	142.47636
973.027	43.38186
973.199	81.32712
973.37	121.38835
973.542	102.41098
973.714	39.16618
973.886	64.46165
974.057	83.43541
974.229	131.93208
974.401	83.43541
974.572	146.69422
974.744	140.36746
974.915	106.62802
975.087	56.02946
975.259	68.67788
975.43	91.86877
975.602	115.06236
975.773	41.27401
975.945	66.56975
976.116	56.02946
976.288	32.84284
976.459	108.73657
976.63	58.13747
976.802	115.06236
976.973	112.95374
977.145	134.0409
977.316	121.38835
977.487	110.84515
977.659	98.19403
977.83	115.06236
978.001	108.73657
978.172	64.46165
978.344	49.70556
978.515	30.7351
978.686	89.7604
978.857	66.56975
979.028	64.46165
979.2	89.7604
979.371	34.9506
979.542	-19.84338
979.713	68.67788
979.884	60.24551
980.055	91.86877
980.226	89.7604
980.397	-21.95051
980.568	39.16618
980.739	51.8135
980.91	106.62802
981.081	81.32712
981.252	24.41204
981.423	60.24551
981.594	18.08919
981.765	47.59764
981.936	72.8942
982.106	39.16618
982.277	9.65906
982.448	13.87408
982.619	32.84284
982.79	62.35357
982.96	32.84284
983.131	81.32712
983.302	66.56975
983.472	22.3044
983.643	24.41204
983.814	93.97717
983.984	115.06236
984.155	49.70556
984.326	129.82329
984.496	89.7604
984.667	98.19403
984.837	47.59764
985.008	15.98162
985.178	32.84284
985.349	83.43541
985.519	30.7351
985.69	39.16618
985.86	53.92147
986.031	-0.87807
986.201	85.54372
986.371	26.51971
986.542	64.46165
986.712	41.27401
986.882	66.56975
987.053	56.02946
987.223	49.70556
987.393	72.8942
987.563	85.54372
987.734	47.59764
987.904	-0.87807
988.074	68.67788
988.244	7.55158
988.414	98.19403
988.585	64.46165
988.755	-17.73622
988.925	30.7351
989.095	-28.27177
989.265	-0.87807
989.435	60.24551
989.605	18.08919
989.775	56.02946
989.945	7.55158
990.115	20.19678
990.285	1.22931
990.455	100.3025
990.625	56.02946
990.795	3.33671
990.965	1.22931
991.134	34.9506
991.304	66.56975
991.474	106.62802
991.644	142.47636
991.814	89.7604
991.984	68.67788
992.153	64.46165
992.323	34.9506
992.493	18.08919
992.662	-32.48582
992.832	-2.98542
993.002	-7.20006
993.171	49.70556
993.341	66.56975
993.511	-68.30117
993.68	24.41204
993.85	89.7604
994.019	47.59764
994.189	53.92147
994.358	20.19678
994.528	-36.69976
994.697	56.02946
994.867	34.9506
995.036	-28.27177
995.206	47.59764
995.375	34.9506
995.544	32.84284
995.714	30.7351
995.883	-2.98542
996.052	7.55158
996.222	56.02946
996.391	89.7604
996.56	22.3044
996.73	-26.16471
996.899	83.43541
997.068	30.7351
997.237	81.32712
997.406	-53.55456
997.576	89.7604
997.745	26.51971
997.914	-0.87807
998.083	26.51971
998.252	26.51971
998.421	22.3044
998.59	41.27401
998.759	13.87408
998.928	3.33671
999.097	51.8135
999.266	-13.52183
999.435	70.78603
999.604	64.46165
999.773	24.41204
999.942	64.46165
1000.111	-11.4146
1000.28	-59.87469
1000.448	-61.98135
1000.617	-7.20006
1000.786	7.55158
1000.955	-17.73622
1001.124	-2.98542
1001.292	70.78603
1001.461	-53.55456
1001.63	-32.48582
1001.798	51.8135
1001.967	93.97717
1002.136	-2.98542
1002.304	43.38186
1002.473	64.46165
1002.642	28.62739
1002.81	-28.27177
1002.979	9.65906
1003.147	-2.98542
1003.316	98.19403
1003.484	30.7351
1003.653	106.62802
1003.821	7.55158
1003.99	18.08919
1004.158	-2.98542
1004.327	56.02946
1004.495	22.3044
1004.663	39.16618
1004.832	-66.19459
1005	22.3044
1005.168	70.78603
1005.337	13.87408
1005.505	37.05838
1005.673	24.41204
1005.842	-26.16471
1006.01	-0.87807
1006.178	-9.30734
1006.346	47.59764
1006.514	3.33671
1006.683	-13.52183
1006.851	-13.52183
1007.019	13.87408
1007.187	64.46165
1007.355	-11.4146
1007.523	32.84284
1007.691	28.62739
1007.859	43.38186
1008.027	7.55158
1008.195	34.9506
1008.363	9.65906
1008.531	37.05838
1008.699	-24.05762
1008.867	-2.98542
1009.035	-7.20006
1009.203	-9.30734
1009.37	-9.30734
1009.538	-36.69976
1009.706	30.7351
1009.874	-49.34101
1010.042	22.3044
1010.209	11.76656
1010.377	60.24551
1010.545	-11.4146
1010.713	15.98162
1010.88	-30.3788
1011.048	20.19678
1011.216	-7.20006
1011.383	-7.20006
1011.551	-49.34101
1011.718	72.8942
1011.886	-7.20006
1012.054	5.44413
1012.221	-28.27177
1012.389	75.0024
1012.556	22.3044
1012.724	39.16618
1012.891	-38.8067
1013.058	39.16618
1013.226	-99.89684
1013.393	58.13747
1013.561	9.65906
1013.728	7.55158
1013.895	-53.55456
1014.063	18.08919
1014.23	1.22931
1014.397	-70.40773
1014.565	-0.87807
1014.732	39.16618
1014.899	-76.72725
1015.066	5.44413
1015.233	-17.73622
1015.401	-17.73622
1015.568	-45.12736
1015.735	-26.16471
1015.902	-93.57817
1016.069	-24.05762
1016.236	56.02946
1016.403	47.59764
1016.57	-5.09275
1016.737	22.3044
1016.904	-36.69976
1017.071	-57.768
1017.238	-11.4146
1017.405	41.27401
1017.572	1.22931
1017.739	89.7604
1017.906	-53.55456
1018.073	-15.62904
1018.24	34.9506
1018.407	-19.84338
1018.573	-2.98542
1018.74	51.8135
1018.907	30.7351
1019.074	24.41204
1019.241	-26.16471
1019.407	60.24551
1019.574	-24.05762
1019.741	32.84284
1019.907	-74.62077
1020.074	1.22931
1020.241	39.16618
1020.407	-40.91361
1020.574	-19.84338
1020.74	-2.98542
1020.907	-49.34101
1021.073	-32.48582
1021.24	77.11062
1021.406	13.87408
1021.573	58.13747
1021.739	-40.91361
1021.906	-40.91361
1022.072	-38.8067
1022.239	13.87408
1022.405	49.70556
1022.571	-43.0205
1022.738	15.98162
1022.904	-36.69976
1023.07	-17.73622
1023.237	7.55158
1023.403	-15.62904
1023.569	-7.20006
1023.735	43.38186
1023.902	-17.73622
1024.068	110.84515
1024.234	9.65906
1024.4	-7.20006
1024.566	20.19678
1024.732	-2.98542
1024.898	45.48974
1025.065	-17.73622
1025.231	-17.73622
1025.397	64.46165
1025.563	13.87408
1025.729	89.7604
1025.895	-68.30117
1026.061	34.9506
1026.227	62.35357
1026.392	-43.0205
1026.558	-76.72725
1026.724	26.51971
1026.89	49.70556
1027.056	30.7351
1027.222	37.05838
1027.388	-36.69976
1027.553	47.59764
1027.719	13.87408
1027.885	5.44413
1028.051	56.02946
1028.216	26.51971
1028.382	-28.27177
1028.548	-7.20006
1028.713	-2.98542
1028.879	-49.34101
1029.045	-24.05762
1029.21	1.22931
1029.376	7.55158
1029.541	-59.87469
1029.707	56.02946
1029.873	-53.55456
1030.038	22.3044
1030.204	70.78603
1030.369	-36.69976
1030.534	91.86877
1030.7	5.44413
1030.865	-15.62904
1031.031	32.84284
1031.196	56.02946
1031.361	-17.73622
1031.527	-9.30734
1031.692	45.48974
1031.857	-11.4146
1032.023	-26.16471
1032.188	13.87408
1032.353	39.16618
1032.518	13.87408
1032.684	15.98162
1032.849	-21.95051
1033.014	64.46165
1033.179	26.51971
1033.344	-53.55456
1033.509	-7.20006
1033.674	-19.84338
1033.839	28.62739
1034.004	-36.69976
1034.17	-28.27177
1034.335	-34.5928
1034.5	13.87408
1034.664	-2.98542
1034.829	-26.16471
1034.994	41.27401
1035.159	-11.4146
1035.324	32.84284
1035.489	-11.4146
1035.654	79.21886
1035.819	24.41204
1035.984	-70.40773
1036.148	-55.66129
1036.313	-34.5928
1036.478	-24.05762
1036.643	15.98162
1036.807	24.41204
1036.972	51.8135
1037.137	-15.62904
1037.301	-51.44779
1037.466	-32.48582
1037.631	-2.98542
1037.795	-19.84338
1037.96	-45.12736
1038.124	5.44413
1038.289	-26.16471
1038.454	7.55158
1038.618	34.9506
1038.783	-95.68442
1038.947	-15.62904
1039.111	-2.98542
1039.276	85.54372
1039.44	-26.16471
1039.605	30.7351
1039.769	13.87408
1039.933	-74.62077
1040.098	43.38186
1040.262	-15.62904
1040.426	34.9506
1040.591	3.33671
1040.755	-64.08798
1040.919	13.87408
1041.083	-9.30734
1041.248	-21.95051
1041.412	-30.3788
1041.576	-28.27177
1041.74	-34.5928
1041.904	5.44413
1042.068	32.84284
1042.232	24.41204
1042.397	-104.10916
1042.561	9.65906
1042.725	51.8135
1042.889	56.02946
1043.053	-26.16471
1043.217	28.62739
1043.381	-28.27177
1043.544	-74.62077
1043.708	22.3044
1043.872	-2.98542
1044.036	30.7351
1044.2	-9.30734
1044.364	-2.98542
1044.528	32.84284
1044.691	1.22931
1044.855	-76.72725
1045.019	39.16618
1045.183	-32.48582
1045.346	15.98162
1045.51	-38.8067
1045.674	-0.87807
1045.837	-43.0205
1046.001	68.67788
1046.165	-26.16471
1046.328	-59.87469
1046.492	-19.84338
1046.655	-19.84338
1046.819	-66.19459
1046.983	-11.4146
1047.146	72.8942
1047.31	-19.84338
1047.473	9.65906
1047.636	-11.4146
1047.8	-47.2342
1047.963	-55.66129
1048.127	7.55158
1048.29	-47.2342
