Data from mixed_try1_USB4F045381__31__00053.txt Node

Date: Thu Apr 03 19:36:02 EDT 2025
User: mmckonesweet
Spectrometer: USB4F04538
Trigger mode: 4
Integration Time (sec): 2.700000E-3
Scans to average: 1
Electric dark correction enabled: true
Nonlinearity correction enabled: true
Boxcar width: 0
XAxis mode: Wavelengths
Number of Pixels in Spectrum: 3648
>>>>>Begin Spectral Data<<<<<
345.52	5.97099
345.736	5.97099
345.952	5.97099
346.168	64.98867
346.384	18.61609
346.6	60.77252
346.816	1.75615
347.032	37.58533
347.248	18.61609
347.464	-4.56592
347.68	-19.31659
347.896	-10.88778
348.112	-36.17303
348.328	-19.31659
348.544	-38.27997
348.76	-10.88778
348.975	20.72369
349.191	-10.88778
349.407	-12.99502
349.623	1.75615
349.839	-31.95906
350.055	-44.60065
350.27	43.90883
350.486	-25.63794
350.702	-15.10224
350.918	48.12461
351.133	37.58533
351.349	31.26204
351.565	43.90883
351.781	-36.17303
351.996	-10.88778
352.212	-8.78052
352.428	83.96248
352.644	-10.88778
352.859	-59.34802
353.075	5.97099
353.291	14.40096
353.506	-25.63794
353.722	-0.35123
353.938	-2.45859
354.153	-0.35123
354.369	24.93896
354.584	-15.10224
354.8	1.75615
355.016	73.42125
355.231	-0.35123
355.447	-15.10224
355.662	-0.35123
355.878	14.40096
356.093	-23.53085
356.309	98.72115
356.524	10.18593
356.74	10.18593
356.955	35.47754
357.171	35.47754
357.386	46.01671
357.602	43.90883
357.817	41.80097
358.033	31.26204
358.248	20.72369
358.464	119.80683
358.679	-42.49378
358.895	81.85419
359.11	3.86356
359.325	86.0708
359.541	46.01671
359.756	-17.20943
359.972	-15.10224
360.187	-10.88778
360.402	-44.60065
360.618	8.07845
360.833	86.0708
361.048	24.93896
361.264	41.80097
361.479	31.26204
361.694	60.77252
361.909	10.18593
362.125	41.80097
362.34	10.18593
362.555	1.75615
362.77	24.93896
362.986	-36.17303
363.201	1.75615
363.416	31.26204
363.631	35.47754
363.847	79.74592
364.062	31.26204
364.277	27.04663
364.492	27.04663
364.707	77.63768
364.922	100.82962
365.138	-48.81431
365.353	33.36978
365.568	-10.88778
365.783	39.69314
365.998	20.72369
366.213	102.93811
366.428	33.36978
366.643	5.97099
366.858	-8.78052
367.073	14.40096
367.288	10.18593
367.503	105.04662
367.718	48.12461
367.933	24.93896
368.148	-21.42373
368.363	-27.74501
368.578	56.55646
368.793	54.44846
369.008	-25.63794
369.223	-50.9211
369.438	-23.53085
369.653	48.12461
369.868	1.75615
370.083	33.36978
370.298	31.26204
370.513	60.77252
370.728	16.50851
370.943	-74.09415
371.157	10.18593
371.372	27.04663
371.587	8.07845
371.802	-27.74501
372.017	81.85419
372.232	35.47754
372.446	-19.31659
372.661	-2.45859
372.876	18.61609
373.091	90.28749
373.306	33.36978
373.52	-2.45859
373.735	43.90883
373.95	50.23254
374.165	69.20492
374.379	-40.38689
374.594	52.34049
374.809	79.74592
375.023	37.58533
375.238	-31.95906
375.453	50.23254
375.667	-19.31659
375.882	18.61609
376.097	-10.88778
376.311	-10.88778
376.526	10.18593
376.741	41.80097
376.955	46.01671
377.17	-6.67324
377.384	41.80097
377.599	16.50851
377.813	67.09678
378.028	-57.24133
378.242	41.80097
378.457	5.97099
378.672	22.83131
378.886	54.44846
379.101	24.93896
379.315	5.97099
379.53	39.69314
379.744	-10.88778
379.958	52.34049
380.173	81.85419
380.387	12.29343
380.602	27.04663
380.816	79.74592
381.031	83.96248
381.245	-2.45859
381.459	27.04663
381.674	-6.67324
381.888	41.80097
382.103	56.55646
382.317	1.75615
382.531	-17.20943
382.746	-19.31659
382.96	24.93896
383.174	39.69314
383.388	52.34049
383.603	60.77252
383.817	35.47754
384.031	22.83131
384.246	58.66448
384.46	67.09678
384.674	52.34049
384.888	39.69314
385.103	-10.88778
385.317	67.09678
385.531	5.97099
385.745	18.61609
385.959	39.69314
386.174	-17.20943
386.388	81.85419
386.602	77.63768
386.816	41.80097
387.03	37.58533
387.244	31.26204
387.458	-25.63794
387.672	-10.88778
387.887	16.50851
388.101	-10.88778
388.315	18.61609
388.529	64.98867
388.743	-0.35123
388.957	90.28749
389.171	-2.45859
389.385	60.77252
389.599	-4.56592
389.813	-15.10224
390.027	60.77252
390.241	-15.10224
390.455	-19.31659
390.669	22.83131
390.883	-61.45468
391.097	98.72115
391.311	48.12461
391.525	33.36978
391.738	-61.45468
391.952	52.34049
392.166	-2.45859
392.38	12.29343
392.594	-15.10224
392.808	-65.66794
393.022	16.50851
393.236	58.66448
393.449	-17.20943
393.663	48.12461
393.877	-53.02787
394.091	16.50851
394.305	54.44846
394.518	29.15432
394.732	50.23254
394.946	39.69314
395.16	-23.53085
395.373	-17.20943
395.587	-2.45859
395.801	27.04663
396.015	16.50851
396.228	102.93811
396.442	-6.67324
396.656	81.85419
396.869	-6.67324
397.083	-27.74501
397.297	56.55646
397.51	41.80097
397.724	-6.67324
397.938	58.66448
398.151	31.26204
398.365	-25.63794
398.578	-40.38689
398.792	-10.88778
399.005	18.61609
399.219	46.01671
399.433	-6.67324
399.646	24.93896
399.86	-2.45859
400.073	48.12461
400.287	-31.95906
400.5	-46.70749
400.714	-4.56592
400.927	48.12461
401.141	-8.78052
401.354	-10.88778
401.567	20.72369
401.781	14.40096
401.994	14.40096
402.208	64.98867
402.421	18.61609
402.635	-36.17303
402.848	24.93896
403.061	69.20492
403.275	37.58533
403.488	-10.88778
403.701	33.36978
403.915	81.85419
404.128	-40.38689
404.341	56.55646
404.555	90.28749
404.768	16.50851
404.981	60.77252
405.195	73.42125
405.408	58.66448
405.621	5.97099
405.834	90.28749
406.048	58.66448
406.261	24.93896
406.474	73.42125
406.687	16.50851
406.9	20.72369
407.114	43.90883
407.327	1.75615
407.54	33.36978
407.753	18.61609
407.966	41.80097
408.179	119.80683
408.392	14.40096
408.605	107.15516
408.819	39.69314
409.032	35.47754
409.245	14.40096
409.458	5.97099
409.671	90.28749
409.884	-10.88778
410.097	16.50851
410.31	27.04663
410.523	-27.74501
410.736	31.26204
410.949	64.98867
411.162	107.15516
411.375	-17.20943
411.588	35.47754
411.801	31.26204
412.014	48.12461
412.227	-21.42373
412.44	81.85419
412.653	43.90883
412.865	56.55646
413.078	31.26204
413.291	18.61609
413.504	31.26204
413.717	92.39587
413.93	96.6127
414.143	-8.78052
414.356	43.90883
414.568	-19.31659
414.781	27.04663
414.994	-10.88778
415.207	16.50851
415.42	22.83131
415.632	22.83131
415.845	-0.35123
416.058	22.83131
416.271	92.39587
416.483	16.50851
416.696	18.61609
416.909	18.61609
417.121	31.26204
417.334	90.28749
417.547	41.80097
417.759	24.93896
417.972	56.55646
418.185	-19.31659
418.397	-27.74501
418.61	94.50427
418.823	69.20492
419.035	-19.31659
419.248	64.98867
419.46	-2.45859
419.673	73.42125
419.885	35.47754
420.098	62.88058
420.311	43.90883
420.523	77.63768
420.736	35.47754
420.948	64.98867
421.161	31.26204
421.373	52.34049
421.586	18.61609
421.798	-0.35123
422.01	16.50851
422.223	41.80097
422.435	41.80097
422.648	54.44846
422.86	37.58533
423.073	8.07845
423.285	60.77252
423.497	5.97099
423.71	16.50851
423.922	43.90883
424.134	-0.35123
424.347	14.40096
424.559	-0.35123
424.771	149.33043
424.984	1.75615
425.196	81.85419
425.408	1.75615
425.621	75.52945
425.833	77.63768
426.045	-10.88778
426.257	90.28749
426.47	37.58533
426.682	88.17913
426.894	27.04663
427.106	27.04663
427.318	46.01671
427.531	77.63768
427.743	73.42125
427.955	-25.63794
428.167	31.26204
428.379	14.40096
428.591	107.15516
428.804	-8.78052
429.016	39.69314
429.228	50.23254
429.44	58.66448
429.652	96.6127
429.864	67.09678
430.076	48.12461
430.288	105.04662
430.5	18.61609
430.712	56.55646
430.924	31.26204
431.136	43.90883
431.348	67.09678
431.56	27.04663
431.772	60.77252
431.984	130.35049
432.196	69.20492
432.408	60.77252
432.62	64.98867
432.832	136.67694
433.044	1.75615
433.256	73.42125
433.468	124.02423
433.679	-19.31659
433.891	8.07845
434.103	52.34049
434.315	52.34049
434.527	35.47754
434.739	41.80097
434.95	39.69314
435.162	107.15516
435.374	90.28749
435.586	-15.10224
435.798	31.26204
436.009	27.04663
436.221	121.91552
436.433	24.93896
436.645	48.12461
436.856	33.36978
437.068	56.55646
437.28	43.90883
437.491	33.36978
437.703	86.0708
437.915	41.80097
438.126	-31.95906
438.338	27.04663
438.55	18.61609
438.761	39.69314
438.973	-0.35123
439.184	56.55646
439.396	77.63768
439.608	31.26204
439.819	43.90883
440.031	64.98867
440.242	14.40096
440.454	27.04663
440.665	75.52945
440.877	50.23254
441.088	48.12461
441.3	24.93896
441.511	-2.45859
441.723	43.90883
441.934	126.13296
442.146	111.37229
442.357	113.4809
442.569	56.55646
442.78	31.26204
442.991	90.28749
443.203	39.69314
443.414	33.36978
443.626	81.85419
443.837	39.69314
444.048	60.77252
444.26	31.26204
444.471	8.07845
444.682	-2.45859
444.894	67.09678
445.105	5.97099
445.316	48.12461
445.528	58.66448
445.739	22.83131
445.95	58.66448
446.161	81.85419
446.373	75.52945
446.584	67.09678
446.795	77.63768
447.006	54.44846
447.217	92.39587
447.429	73.42125
447.64	33.36978
447.851	107.15516
448.062	102.93811
448.273	31.26204
448.484	27.04663
448.695	64.98867
448.907	151.43941
449.118	39.69314
449.329	98.72115
449.54	86.0708
449.751	69.20492
449.962	31.26204
450.173	64.98867
450.384	67.09678
450.595	60.77252
450.806	77.63768
451.017	67.09678
451.228	48.12461
451.439	140.89469
451.65	126.13296
451.861	48.12461
452.072	43.90883
452.283	27.04663
452.494	27.04663
452.705	83.96248
452.915	67.09678
453.126	153.54842
453.337	46.01671
453.548	98.72115
453.759	18.61609
453.97	79.74592
454.181	-36.17303
454.391	92.39587
454.602	69.20492
454.813	102.93811
455.024	92.39587
455.235	83.96248
455.445	117.69816
455.656	107.15516
455.867	77.63768
456.078	136.67694
456.288	113.4809
456.499	159.87558
456.71	94.50427
456.921	115.58952
457.131	195.73297
457.342	115.58952
457.553	134.5681
457.763	48.12461
457.974	126.13296
458.184	81.85419
458.395	98.72115
458.606	102.93811
458.816	132.45929
459.027	64.98867
459.237	109.26371
459.448	41.80097
459.659	117.69816
459.869	113.4809
460.08	81.85419
460.29	161.98467
460.501	132.45929
460.711	115.58952
460.922	176.7489
461.132	115.58952
461.343	136.67694
461.553	107.15516
461.764	113.4809
461.974	121.91552
462.184	48.12461
462.395	164.09378
462.605	149.33043
462.816	185.18606
463.026	183.07674
463.236	157.7665
463.447	157.7665
463.657	185.18606
463.867	140.89469
464.078	229.48645
464.288	225.26699
464.498	242.1453
464.709	183.07674
464.919	185.18606
465.129	216.8283
465.339	202.06136
465.55	227.37671
465.76	73.42125
465.97	149.33043
466.18	193.62355
466.391	233.70599
466.601	294.89792
466.811	294.89792
467.021	294.89792
467.231	288.56699
467.441	237.92561
467.651	290.67728
467.862	252.69488
468.072	377.21465
468.282	301.22902
468.492	328.66565
468.702	292.78759
468.912	345.55122
469.122	275.90563
469.332	341.32972
469.542	311.78121
469.752	391.99222
469.962	429.99538
470.172	398.32572
470.382	368.7707
470.592	351.8836
470.802	478.56239
471.012	503.90488
471.222	404.65936
471.432	448.99889
471.642	512.35284
471.852	482.78599
472.062	506.01685
472.272	590.50708
472.482	525.02522
472.691	639.09854
472.901	565.15772
473.111	639.09854
473.321	605.29508
473.531	647.5499
473.741	590.50708
473.95	651.77565
474.16	620.0837
474.37	801.81867
474.58	742.64038
474.79	869.46005
474.999	782.79623
475.209	736.30033
475.419	871.57399
475.628	858.89049
475.838	765.88806
476.048	896.94188
476.258	934.99584
476.467	1133.75658
476.677	1028.02631
476.886	1125.29771
477.096	1137.98605
477.306	1146.44503
477.515	1076.66063
477.725	1178.16679
477.935	1157.01885
478.144	1237.38293
478.354	1264.87694
478.563	1482.72408
478.773	1328.3262
478.982	1237.38293
479.192	1550.40531
479.401	1391.77694
479.611	1408.6973
479.82	1679.4184
480.03	1615.9703
480.239	1751.32312
480.449	1569.44047
480.658	1677.3035
480.868	1630.77505
481.077	1899.34776
481.287	1747.09354
481.496	1958.55069
481.705	1918.37775
481.915	2125.56047
482.124	2034.66174
482.333	2089.62539
482.543	2161.49331
482.752	2163.60693
482.961	2169.94776
483.171	2326.32992
483.38	2112.87775
483.589	2284.06939
483.799	2374.92472
484.008	2508.00397
484.217	2303.0871
484.426	2788.79567
484.636	2491.10742
484.845	2681.15005
485.054	2590.36406
485.263	2634.70427
485.472	2584.02931
485.682	2919.611
485.891	2864.75958
486.1	2820.44949
486.309	2938.59574
486.518	2930.15822
486.727	2925.93938
486.936	3069.3465
487.146	3122.05176
487.355	3221.11044
487.564	3267.46581
487.773	3250.61025
487.982	3301.17367
488.191	3524.37542
488.4	3370.68227
488.609	3244.28914
488.818	3461.22543
489.027	3499.11739
489.236	3494.90746
489.445	3865.09317
489.654	3518.06116
489.863	3722.13724
490.072	3648.522
490.281	3810.44428
490.49	3980.65201
490.698	3818.85267
490.907	3873.4995
491.116	3999.5558
491.325	3991.15432
491.534	4184.30459
491.743	4108.74504
491.952	4209.48503
492.16	4049.95778
492.369	4329.05021
492.578	4243.0542
492.787	4440.16193
492.996	4356.30968
493.204	4297.59245
493.413	4540.73833
493.622	4643.35737
493.831	4261.93446
494.039	4704.06577
494.248	4779.40154
494.457	4655.91928
494.665	4909.07742
494.874	4758.47788
495.083	4645.45107
495.291	4936.25638
495.5	4779.40154
495.709	4982.24269
495.917	4647.54476
496.126	4984.33271
496.335	4994.78248
496.543	5011.5009
496.752	5095.07084
496.96	5297.57351
497.169	5172.33999
497.377	5489.43448
497.586	5368.50179
497.794	5443.57277
498.003	5038.66519
498.211	5370.58751
498.42	5280.88057
498.628	5541.53623
498.837	5401.87043
499.045	5576.95702
499.254	5589.45684
499.462	5818.46983
499.671	5626.95123
499.879	5726.8989
500.087	5608.20499
500.296	6038.88495
500.504	5901.67648
500.713	5772.69008
500.921	6065.89877
501.129	6038.88495
501.338	5558.20569
501.546	6086.67592
501.754	6146.91636
501.962	6209.21326
502.171	6020.18075
502.379	6207.13704
502.587	6047.19732
502.795	6387.6809
503.004	6061.74305
503.212	6373.16093
503.42	6188.44998
503.628	6414.64354
503.837	6236.20203
504.045	6495.50787
504.253	6373.16093
504.461	6576.33691
504.669	6371.08655
504.877	6603.27211
505.085	6636.41777
505.294	6588.76903
505.502	6516.23662
505.71	6752.3812
505.918	6667.48647
506.126	6917.9189
506.334	6458.19026
506.542	6942.73702
506.75	6799.98822
506.958	7089.51117
507.166	6835.16826
507.374	6953.07694
507.582	6922.05548
507.79	7041.97701
507.998	7066.77892
508.206	7306.36543
508.414	6884.823
508.622	7075.04551
508.83	6932.39653
509.037	7209.32752
509.245	6946.87305
509.453	7304.3013
509.661	7070.91226
509.869	7374.46944
510.077	7331.13328
510.285	7648.71012
510.492	7306.36543
510.7	7465.23788
510.908	7374.46944
511.116	7485.86122
511.324	7508.5444
511.531	7628.1037
511.739	7428.11042
511.947	7473.48747
512.155	7417.79599
512.362	7735.23396
512.57	7605.43418
512.778	7932.86414
512.985	7654.89163
513.193	7735.23396
513.401	7788.77774
513.608	8011.04022
513.816	7836.13162
514.024	7776.42274
514.231	7860.83363
514.439	7751.71048
514.646	7943.15215
514.854	8140.58335
515.061	7838.19024
515.269	8105.63515
515.477	7978.12757
515.684	8220.73685
515.892	7961.66929
516.099	8245.39339
516.307	8146.75008
516.514	8458.96549
516.722	8198.13252
516.929	8179.63627
517.136	8083.01851
517.344	8231.01076
517.551	8183.74669
517.759	8497.96091
517.966	8524.63803
518.173	8524.63803
518.381	8754.34039
518.588	8598.49646
518.796	8524.63803
519.003	8723.59017
519.21	8549.26023
519.418	8807.63104
519.625	8797.3838
519.832	8742.0408
520.039	8836.32092
520.247	8795.33429
520.454	8957.18962
520.661	8940.80428
520.868	8756.39026
521.076	9217.15749
521.283	8885.49536
521.49	8912.1272
521.697	8961.28578
521.904	9157.8192
522.112	8813.77917
522.319	9106.654
522.526	8910.07871
522.733	9380.77619
522.94	9035.0046
523.147	9053.43076
523.354	9223.29512
523.561	9407.35424
523.768	9237.61567
523.975	9525.89994
524.183	9274.43615
524.39	9768.95689
524.597	9458.45817
524.804	9485.02822
525.011	9435.97369
525.218	9462.54605
525.425	9813.86799
525.632	9599.45303
525.838	9701.57648
526.045	9470.72161
526.252	9768.95689
526.459	9838.3619
526.666	9705.66061
526.873	9885.30257
527.08	9826.11521
527.287	10044.43503
527.494	9887.34329
527.701	10148.43618
527.907	9932.23543
528.114	10070.94861
528.321	10036.27653
528.528	10270.74427
528.735	10138.2416
528.941	10413.37576
529.148	10034.23687
529.355	10378.74264
529.562	10195.32678
529.768	10364.48084
529.975	10028.11779
530.182	10568.16063
530.388	10238.13359
530.595	10227.94204
530.802	10346.14329
531.008	10617.0249
531.215	10600.73761
531.422	10755.43533
531.628	10671.98871
531.835	10747.29509
532.042	10529.47131
532.248	10657.73969
532.455	10649.59713
532.661	10903.9618
532.868	10836.82739
533.074	10773.75019
533.281	11019.89207
533.487	10950.74508
533.694	11003.62335
533.9	11422.32626
534.107	10960.91456
534.313	11174.41017
534.52	11023.95914
534.726	11286.19434
534.933	11007.6906
535.139	11235.38724
535.345	11306.51539
535.552	11349.18631
535.758	11349.18631
535.965	11416.23175
536.171	11525.91962
536.377	11381.69453
536.584	11552.32182
536.79	11716.79285
536.996	11779.72306
537.203	11625.42742
537.409	11475.14168
537.615	11619.33574
537.821	11860.9111
538.028	11751.304
538.234	11816.25936
538.44	11765.51374
538.646	11933.96889
538.853	11883.23545
539.059	11789.87231
539.265	11956.28998
539.471	11810.17017
539.677	12037.44941
539.883	12197.70286
540.09	11793.93195
540.296	12096.28214
540.502	12165.25026
540.708	11818.28907
540.914	12621.45137
541.12	12039.47823
541.326	12323.43914
541.532	12211.90028
541.738	12597.12903
541.944	12445.09389
542.15	12706.57271
542.356	12473.47653
542.562	12732.91768
542.768	12374.13159
542.974	12690.35993
543.18	12714.67896
543.386	13083.42039
543.592	12890.96744
543.798	12753.18238
544.004	12698.46637
544.21	12965.92825
544.415	12637.66578
544.621	13320.38232
544.827	12911.22783
545.033	13176.59226
545.239	12866.65427
545.445	13223.17456
545.651	13012.52196
545.856	13125.9566
546.062	13016.57346
546.268	13136.08397
546.474	12933.51364
546.679	13225.19982
546.885	13166.46536
547.091	13127.98208
547.297	13073.29241
547.502	13196.84573
547.708	13028.72785
547.914	13296.08131
548.119	13458.07703
548.325	13458.07703
548.531	13152.28751
548.736	13166.46536
548.942	13304.18171
549.147	13140.13488
549.353	13456.05224
549.559	13737.46388
549.764	13786.0465
549.97	13806.28874
550.175	13425.67992
550.381	13727.34228
550.586	13352.78275
550.792	13735.43957
550.997	13607.90132
551.203	13587.65594
551.408	14022.86342
551.614	13899.39937
551.819	14290.0022
552.025	14267.74198
552.23	13662.56216
552.435	13945.95251
552.641	13960.12058
552.846	14255.59994
553.052	14010.71983
553.257	14172.62752
553.462	14067.38917
553.668	14004.648
553.873	13905.4716
554.078	14172.62752
554.283	14207.03112
554.489	14500.45258
554.694	14648.16364
554.899	14298.09677
555.105	14405.34728
555.31	14670.42096
555.515	14638.04664
555.72	14510.56998
555.925	14279.88394
556.131	14789.79925
556.336	14644.11684
556.541	14862.63894
556.746	14856.56899
556.951	14721.00534
557.156	14642.09344
557.361	14605.67205
557.567	14979.99026
557.772	15062.94475
557.977	15133.7593
558.182	15010.33952
558.387	15014.38608
558.592	14890.96527
558.797	14897.03518
559.002	15186.36433
559.207	15151.96873
559.412	15091.27059
559.617	15293.59783
559.822	15224.80649
560.027	15042.71199
560.232	15000.22311
560.437	15012.3628
560.642	15010.33952
560.847	15028.54904
561.051	15135.78257
561.256	15174.22471
561.461	15437.2514
561.666	15327.9936
561.871	15408.92519
562.076	15425.11158
562.281	15330.01688
562.485	15162.08509
562.69	15404.87859
562.895	14739.21559
563.1	15578.8841
563.305	15388.69223
563.509	15692.19279
563.714	15485.81085
563.919	15651.7251
564.123	15321.92375
564.328	15609.23439
564.533	15605.18767
564.737	15568.76737
564.942	15667.91213
565.147	15783.2465
565.351	15645.65498
565.556	15750.87161
565.761	15572.81406
565.965	15712.42678
566.17	15639.58486
566.374	15870.25539
566.579	15837.87974
566.784	15839.90321
566.988	15864.18493
567.193	15878.34935
567.397	15455.46115
567.602	15955.24297
567.806	16011.90266
568.011	16117.13079
568.215	16040.23291
568.42	16019.99699
568.624	16121.17811
568.828	16351.88645
569.033	15765.03559
569.237	16028.09134
569.442	16161.65165
569.646	16264.8622
569.85	16364.02965
570.055	16416.65096
570.259	16623.10186
570.463	16695.97234
570.668	16453.08189
570.872	16410.57921
571.076	16590.71592
571.281	16685.85126
571.485	16127.2491
571.689	16493.56147
571.893	16576.54726
572.098	16564.40277
572.302	16420.69881
572.506	16817.42995
572.71	16523.92171
572.914	16817.42995
573.119	16619.05359
573.323	16673.70604
573.527	16815.40558
573.731	16855.89336
573.935	16697.99657
574.139	16742.53007
574.343	16572.49908
574.547	17054.29843
574.751	16957.11727
574.955	16843.74692
575.159	17501.82171
575.364	17189.95776
575.568	17080.61941
575.772	17339.8055
575.976	16938.89649
576.18	16766.82155
576.383	17135.28755
576.587	17272.97951
576.791	16918.65142
576.995	17173.75896
577.199	17212.2314
577.403	17189.95776
577.607	17044.17511
577.811	17220.331
578.015	17189.95776
578.219	17287.15444
578.422	17151.48592
578.626	17368.15691
578.83	17230.45556
579.034	17408.65997
579.238	17607.14307
579.442	17594.99016
579.645	17501.82171
579.849	17548.40509
580.053	17566.63383
580.257	17736.78149
580.46	17708.42192
580.664	17566.63383
580.868	17505.87237
581.071	17898.84892
581.275	17690.19112
581.479	17615.24508
581.682	17550.43049
581.886	17641.57696
582.09	17854.27819
582.293	18320.33027
582.497	17870.48553
582.7	18158.20346
582.904	17917.08289
583.107	18038.64995
583.311	18137.93926
583.515	17931.26506
583.718	17775.27053
583.922	18135.91286
584.125	17831.99345
584.329	18048.78112
584.532	18038.64995
584.735	18409.5102
584.939	18105.51731
585.142	18172.38861
585.346	18298.03642
585.549	18506.80578
585.753	18415.59092
585.956	18379.10713
586.159	18375.05345
586.363	18859.57728
586.566	18636.54702
586.769	18875.79953
586.973	18525.04969
587.176	18774.41462
587.379	18229.13102
587.582	18547.34822
587.786	18539.23961
587.989	18547.34822
588.192	18559.51125
588.395	18831.18895
588.599	18711.56096
588.802	18804.82905
589.005	18644.65638
589.208	19155.67403
589.411	18883.91076
589.615	18954.8867
589.818	19019.78331
590.021	19100.9099
590.224	19048.17687
590.427	18887.96639
590.63	19066.4303
590.833	19299.69766
591.036	19074.54304
591.239	19419.39507
591.442	18977.19444
591.645	19267.23982
591.848	19512.72849
592.051	19257.09696
592.254	18697.36872
592.457	19474.17666
592.66	19380.84687
592.863	19798.87071
593.066	19729.86426
593.269	19484.32173
593.472	19602.01218
593.675	20139.91503
593.878	19533.01953
594.081	20076.9753
594.284	19957.19796
594.486	19902.38948
594.689	20054.64282
594.892	19890.21023
595.095	19742.04152
595.298	20001.85898
595.5	19983.58832
595.703	20064.79388
595.906	19407.22179
596.109	19815.10823
596.311	19772.48532
596.514	19928.77836
596.717	19809.01913
596.92	20257.68408
597.122	20111.49013
597.325	20241.43923
597.528	19742.04152
597.73	20170.37119
597.933	20024.19026
598.136	20454.67425
598.338	20143.97579
598.541	20499.35792
598.743	20572.48102
598.946	20174.43208
599.148	20012.0095
599.351	20182.55391
599.554	20032.31085
599.756	20154.12778
599.959	20269.8679
600.161	20615.13867
600.363	20775.6291
600.566	20613.10731
600.768	20434.36416
600.971	20745.15424
601.173	20696.3964
601.376	20877.21871
601.578	20546.07484
601.78	20826.42261
601.983	20501.38905
602.185	20755.31242
602.388	20930.04938
602.59	20873.15492
602.792	20938.17742
602.995	20850.80441
603.197	20781.72419
603.399	20749.2175
603.601	20781.72419
603.804	20901.60175
604.006	20509.51359
604.208	20848.77257
604.41	20342.97395
604.613	20948.33757
604.815	20836.58162
605.017	21100.75208
605.219	21084.49343
605.421	21045.8802
605.623	21175.9517
605.826	21086.52575
606.028	20800.00966
606.23	21019.46147
606.432	20838.61344
606.634	21407.68266
606.836	20643.57812
607.038	21049.94468
607.24	21220.66763
607.442	21098.71973
607.644	21240.9937
607.846	21684.2015
608.048	21320.26922
608.25	21470.70625
608.452	21149.52958
608.654	21369.05721
608.856	20887.37823
609.058	21139.36741
609.26	21383.28747
609.462	21279.61434
609.664	21627.26519
609.866	21192.21181
610.067	21068.23505
610.269	21393.45206
610.471	20814.23193
610.673	21497.13663
610.875	21462.57395
611.077	21712.67081
611.278	21391.41914
611.48	21110.91386
611.682	21062.13823
611.884	21838.75833
612.085	21301.97433
612.287	21545.93294
612.489	21328.40039
612.69	21434.11144
612.892	21236.92845
613.094	21787.9148
613.295	21291.81064
613.497	21369.05721
613.699	21253.18953
613.9	21456.47478
614.102	21125.14053
614.304	21529.66725
614.505	21206.43962
614.707	21653.69952
614.908	21352.79429
615.11	21920.11299
615.311	21690.302
615.513	21413.78155
615.714	21224.73281
615.916	21737.07368
616.117	21580.49837
616.319	21519.50132
616.52	21299.94158
616.722	21726.90575
616.923	21383.28747
617.124	21312.13812
617.326	21387.3533
617.527	21430.04543
617.729	21598.79818
617.93	22070.63521
618.131	21846.89352
618.333	21763.51076
618.534	21580.49837
618.735	22023.84905
618.937	21635.39876
619.138	21751.30895
619.339	21507.30234
619.54	21942.4866
619.742	21686.235
619.943	21930.28276
620.144	21659.79985
620.345	21686.235
620.546	21798.08331
620.748	22056.39573
620.949	21629.29857
621.15	21694.36902
621.351	21871.29946
621.552	21781.81373
621.753	21523.56768
621.954	22078.77214
622.155	21403.61676
622.356	21905.87548
622.558	21983.16707
622.759	22394.12388
622.96	21909.94332
623.161	21979.09895
623.362	22023.84905
623.563	21918.07905
623.764	21724.87218
623.965	22040.12227
624.166	21938.41864
624.366	22152.00718
624.567	22017.74666
624.768	22031.98563
624.969	21800.11702
625.17	21966.8947
625.371	21730.97291
625.572	22158.11031
625.773	21855.02877
625.973	22064.53255
626.174	22121.49199
626.375	22036.05394
626.576	22221.17804
626.777	22078.77214
626.977	21775.71271
627.178	22036.05394
627.379	21499.16976
627.58	22127.59496
627.78	22019.78079
627.981	22178.45435
628.182	22141.83535
628.382	22259.83422
628.583	22215.07456
628.784	21771.64538
628.984	21820.45438
629.185	22274.07631
629.386	21783.84742
629.586	22125.56063
629.787	21987.2352
629.987	22548.78002
630.188	22084.87487
630.388	21875.36717
630.589	22133.69796
630.79	22255.76509
630.99	22304.59567
631.191	22709.5628
631.391	22664.78564
631.591	22306.63032
631.792	22475.51926
631.992	22373.77594
632.193	22752.30621
632.393	22408.36765
632.594	22097.08044
632.794	22538.60464
632.994	22021.81492
633.195	22170.31669
633.395	22318.83832
633.595	22695.31534
633.796	22512.14906
633.996	22225.24705
634.196	21999.43968
634.397	22560.99059
634.597	22750.27077
634.797	22949.75973
634.997	22866.29607
635.198	22868.3317
635.398	22426.68133
635.598	22945.6882
635.798	22847.97555
635.998	22556.92039
636.199	22516.21911
636.399	22278.14551
636.599	22190.66095
636.799	22762.48343
636.999	22361.56735
637.199	22556.92039
637.399	23021.01368
637.599	22996.58329
637.799	22713.63354
637.999	23271.45253
638.199	22900.90226
638.399	23069.87589
638.599	22768.58981
638.799	22945.6882
638.999	23112.6319
639.199	23088.19972
639.399	22733.98742
639.599	23071.91186
639.799	22666.82093
639.999	22847.97555
640.199	22705.49208
640.399	22841.86877
640.599	22288.31857
640.799	23265.34368
640.998	23432.32922
641.198	23185.93127
641.398	22882.58122
641.598	23462.87764
641.798	23603.40935
641.997	23668.5884
642.197	23181.85897
642.397	23530.08664
642.597	22911.08074
642.796	22980.29663
642.996	22626.11583
643.196	23169.64216
643.395	23039.33679
643.595	23057.66016
643.795	22978.26082
643.994	23407.89098
644.194	22933.47369
644.394	23043.40862
644.593	23051.55234
644.793	23356.97945
644.992	23259.23486
645.192	23401.78149
645.392	23316.25164
645.591	23403.81799
645.791	23436.4023
645.99	23385.48966
646.19	23338.65178
646.389	23477.13381
646.589	22953.83127
646.788	23509.71992
646.987	23116.70397
647.187	23713.40079
647.386	23340.68817
647.586	23314.21529
647.785	23432.32922
647.984	23424.18309
648.184	23542.30681
648.383	23631.92481
648.582	23057.66016
648.782	23161.49768
648.981	23098.37973
649.18	23310.14258
649.38	23796.91861
649.579	23976.19291
649.778	23904.88796
649.977	23845.80938
650.177	23361.0523
650.376	23444.5485
650.575	23430.29268
650.774	23674.6991
650.973	23876.36696
651.173	23538.23341
651.372	23660.44085
651.571	23741.91851
651.77	23843.77223
651.969	23776.54795
652.168	23652.29335
652.367	23536.19671
652.566	23517.86657
652.765	23853.958
652.964	23821.36378
653.163	23784.69618
653.362	23760.25164
653.561	23444.5485
653.76	23648.21962
653.959	23668.5884
654.158	24137.15107
654.357	23627.85113
654.556	23699.14214
654.755	24092.32553
654.954	23682.84673
655.153	23473.06061
655.352	23717.47471
655.551	23825.43802
655.749	24084.17558
655.948	24053.61365
656.147	24332.76882
656.346	24491.72623
656.545	24298.12638
656.743	23719.51168
656.942	23908.96243
657.141	23672.6622
657.34	24071.95073
657.538	23994.52903
657.737	23803.02986
657.936	24683.3109
658.135	23917.11142
658.333	24271.63561
658.532	24216.61778
658.731	24251.25841
658.929	23851.92084
659.128	23862.10668
659.326	24283.86206
659.525	24499.87831
659.724	23959.89433
659.922	24261.44698
660.121	24053.61365
660.319	24008.79062
660.518	23866.18103
660.716	24157.52675
660.915	24267.56015
661.113	24318.50419
661.312	23900.8135
661.51	24161.60192
661.709	23888.59018
661.907	24126.96333
662.105	24063.80089
662.304	24400.0181
662.502	24357.22277
662.701	24137.15107
662.899	24059.72598
663.097	24371.48775
663.296	24442.81457
663.494	24485.61219
663.692	24467.27021
663.891	24518.22065
664.089	24363.33632
664.287	24340.9201
664.485	24169.75229
664.684	24577.32515
664.882	24088.25055
665.08	23996.56639
665.278	24257.37154
665.476	24302.20192
665.675	24628.279
665.873	24424.47309
666.071	24018.97755
666.269	24023.05234
666.467	24186.05317
666.665	24448.92845
666.863	24143.26374
667.061	24410.20763
667.259	24098.43802
667.457	24471.34619
667.655	23876.36696
667.853	23892.66461
668.051	24043.42648
668.249	24143.26374
668.447	23923.22318
668.645	24092.32553
668.843	24251.25841
669.041	24088.25055
669.239	23943.59593
669.437	24292.01308
669.635	23735.80752
669.833	23876.36696
670.031	23686.92057
670.229	24027.12715
670.426	23798.95569
670.624	24094.36303
670.822	23943.59593
671.02	23968.0436
671.218	23701.17908
671.415	23762.28866
671.613	23925.26045
671.811	23998.60376
672.009	24312.39082
672.206	24106.58806
672.404	23835.62366
672.602	24334.80664
672.799	23921.18593
672.997	24310.35303
673.195	24116.77566
673.392	24438.73867
673.59	24424.47309
673.788	23851.92084
673.985	23664.51462
674.183	24243.1076
674.38	23955.81971
674.578	23849.88369
674.775	23870.25539
674.973	24129.00087
675.17	24285.89981
675.368	23915.07417
675.565	24318.50419
675.763	24565.09646
675.96	24016.94016
676.158	24243.1076
676.355	23599.33576
676.553	24251.25841
676.75	23568.78424
676.947	23725.6226
677.145	23693.03134
677.342	23884.51576
677.539	23919.14867
677.737	23646.18276
677.934	23770.43681
678.131	24192.16604
678.329	24057.68853
678.526	24381.6771
678.723	24302.20192
678.92	24114.73813
679.118	23409.92749
679.315	23855.99517
679.512	23841.73508
679.709	24018.97755
679.906	23560.63729
680.104	23805.06695
680.301	23601.37256
680.498	23338.65178
680.695	23381.41674
680.892	23847.84653
681.089	23438.43885
681.286	23526.01327
681.483	23071.91186
681.68	23114.66793
681.877	23200.18442
682.075	23568.78424
682.272	23326.43348
682.469	23737.84451
682.665	23428.25615
682.862	23361.0523
683.059	23391.59908
683.256	23566.7475
683.453	23560.63729
683.65	23530.08664
683.847	23157.42546
684.044	23128.92028
684.241	23080.05576
684.438	23377.34383
684.635	22823.54861
684.831	23548.41694
685.028	23568.78424
685.225	23442.51195
685.422	23033.22905
685.619	23161.49768
685.815	23110.59586
686.012	23403.81799
686.209	23008.79843
686.405	23346.79738
686.602	23086.16372
686.799	23330.50623
686.996	23517.86657
687.192	23344.76097
687.389	23688.95749
687.586	23562.67402
687.782	23379.38028
687.979	23483.24365
688.175	23165.56991
688.372	23295.88822
688.568	22990.47577
688.765	22762.48343
688.962	22955.86705
689.158	23118.74002
689.355	23118.74002
689.551	22976.225
689.748	22723.81043
689.944	22825.58417
690.14	22839.83318
690.337	22827.61973
690.533	23489.35351
690.73	23356.97945
690.926	23407.89098
691.123	23000.65499
691.319	22821.51305
691.515	23110.59586
691.712	22886.65254
691.908	22858.15358
692.104	22532.49945
692.301	22850.01115
692.497	22654.60925
692.693	23035.26496
692.889	22827.61973
693.086	22856.11797
693.282	22992.51161
693.478	22752.30621
693.674	22516.21911
693.87	22400.22833
694.067	22872.40298
694.263	22925.33075
694.459	22463.30958
694.655	22886.65254
694.851	22966.04599
695.047	22882.58122
695.243	22451.10004
695.439	22095.04617
695.635	22825.58417
695.831	22670.89152
696.027	22257.79965
696.224	22156.07593
696.42	22272.04171
696.615	22396.15869
696.811	22593.55276
697.007	22253.73053
697.203	22296.45709
697.399	22617.97497
697.595	22495.869
697.791	22371.74116
697.987	22298.49173
698.183	22727.88122
698.379	22347.32416
698.575	22329.01175
698.77	22320.873
698.966	22495.869
699.162	22911.08074
699.358	22589.48244
699.554	22809.29979
699.749	22705.49208
699.945	22436.85573
700.141	22697.35068
700.337	22501.974
700.532	22772.66075
700.728	22481.62414
700.924	22483.65911
701.119	22306.63032
701.315	21844.85972
701.511	21613.03159
701.706	22170.31669
701.902	22009.61019
702.097	22048.25897
702.293	22219.14355
702.489	22432.78596
702.684	22141.83535
702.88	22526.39429
703.075	22388.01946
703.271	22345.28943
703.466	22249.66141
703.662	22231.35059
703.857	22107.25185
704.053	22174.38552
704.248	22023.84905
704.443	22394.12388
704.639	22381.91507
704.834	22361.56735
705.03	22326.97706
705.225	22251.69597
705.42	21930.28276
705.616	22131.66362
705.811	22005.54197
706.006	22390.05426
706.202	21724.87218
706.397	21968.92873
706.592	22206.93663
706.787	22038.08811
706.983	22003.50787
707.178	22664.78564
707.373	21844.85972
707.568	21848.92733
707.763	21767.57806
707.959	21716.73792
708.154	21578.46508
708.349	21771.64538
708.544	21983.16707
708.739	21645.56581
708.934	21812.31939
709.129	21871.29946
709.324	21440.21049
709.519	22267.97253
709.714	21708.60372
709.909	21926.21484
710.104	21360.92572
710.299	21566.26541
710.494	21702.50311
710.689	21667.93367
710.884	21411.74859
711.079	21983.16707
711.274	21747.24171
711.469	22160.1447
711.664	21881.46876
711.859	21706.57018
712.054	21610.99823
712.249	21659.79985
712.443	21625.2318
712.638	21460.54089
712.833	20858.93181
713.028	21663.86675
713.223	21354.82714
713.417	21586.59828
713.612	21466.64009
713.807	22135.7323
714.002	21865.19792
714.196	21995.3715
714.391	22052.32735
714.586	22060.46414
714.78	21484.93791
714.975	21818.42063
715.17	21861.13025
715.364	21911.97725
715.559	21812.31939
715.754	21914.01118
715.948	21564.23215
716.143	21596.76486
716.337	21407.68266
716.532	21385.32038
716.726	21625.2318
716.921	21901.80766
717.115	22109.28615
717.31	21881.46876
717.504	21613.03159
717.699	21761.47711
717.893	21415.81452
718.088	21515.43498
718.282	21554.06588
718.476	21775.71271
718.671	21005.23629
718.865	21216.60246
719.059	20915.82546
719.254	20631.38968
719.448	20621.23277
719.642	21092.62272
719.837	20645.60954
720.031	21056.04144
720.225	20909.72956
720.419	21005.23629
720.614	20702.491
720.808	20865.02741
721.002	20412.02355
721.196	21143.43226
721.39	21011.33277
721.585	21039.78351
721.779	20934.11339
721.973	20747.18587
722.167	20275.95986
722.361	20761.40738
722.555	20661.86105
722.749	20846.74074
722.943	20529.82522
723.137	20436.39515
723.331	20054.64282
723.525	20598.88792
723.719	20680.14432
723.913	20972.72234
724.107	20436.39515
724.301	20405.93074
724.495	20395.77615
724.689	20479.04691
724.883	20361.25131
725.077	20245.50042
725.271	20529.82522
725.465	20556.23098
725.659	20588.73134
725.853	20631.38968
726.046	20619.20139
726.24	20208.95034
726.434	20007.94928
726.628	20277.99052
726.822	20237.37806
727.015	20466.86051
727.209	20416.08544
727.403	20728.90136
727.596	20804.07315
727.79	20865.02741
727.984	20527.79404
728.177	20655.7667
728.371	20487.17127
728.565	20548.10606
728.758	20525.76286
728.952	20265.80661
729.146	20284.08253
729.339	20505.45131
729.533	20523.73169
729.726	20659.8296
729.92	20320.63541
730.113	20726.86977
730.307	20556.23098
730.5	20759.37573
730.694	20422.17831
730.887	20345.00475
731.081	20787.81931
731.274	20292.20528
731.468	20347.03555
731.661	20115.55078
731.854	20123.67213
732.048	20198.79779
732.241	20247.53102
732.435	20355.15882
732.628	20334.85078
732.821	20188.64533
733.014	20363.28215
733.208	20184.58438
733.401	20239.40865
733.594	20079.00555
733.788	20273.9292
733.981	20219.10301
734.174	19932.83825
734.367	20251.59223
734.56	20347.03555
734.754	20399.83797
734.947	20290.17459
735.14	20206.91982
735.333	20330.78923
735.526	20253.62285
735.719	19819.16765
735.912	19861.79258
736.105	19936.89816
736.298	19671.00965
736.491	19727.83473
736.684	19622.30505
736.877	19695.36286
737.07	19865.85219
737.263	20003.88908
737.456	20237.37806
737.649	19756.24851
737.842	20003.88908
738.035	19744.07108
738.228	19719.71666
738.421	19871.94165
738.614	19815.10823
738.807	19888.18037
739	19658.83327
739.192	19794.81137
739.385	19776.54456
739.578	19938.92812
739.771	19831.34601
739.964	19559.3985
740.156	19991.70857
740.349	19658.83327
740.542	19707.53969
740.735	19863.82238
740.927	19910.50906
741.12	19616.21714
741.313	20058.70323
741.505	19910.50906
741.698	19579.6905
741.891	19693.3334
742.083	19839.465
742.276	19786.69275
742.468	19664.92144
742.661	19453.88683
742.854	19843.52452
743.046	19455.9158
743.239	19671.00965
743.431	19561.42768
743.624	19589.83665
743.816	19293.61173
744.009	19374.76045
744.201	19630.42232
744.393	19484.32173
744.586	19606.07072
744.778	19423.45286
744.971	19756.24851
745.163	19636.51031
745.355	19271.29699
745.548	19303.75496
745.74	19301.72631
745.932	19528.96129
746.125	19301.72631
746.317	19464.03169
746.509	19330.12784
746.702	19378.81806
746.894	18790.63554
747.086	18683.17668
747.278	19127.27744
747.471	19388.96216
747.663	19255.0684
747.855	19827.28654
748.047	19502.58313
748.239	19317.95566
748.431	19585.77818
748.623	19358.53018
748.815	19115.10772
749.008	19419.39507
749.2	19378.81806
749.392	19455.9158
749.584	19210.44114
749.776	19386.93333
749.968	19305.78362
750.16	19618.24644
750.352	19313.89829
750.544	19429.53958
750.736	19616.21714
750.928	19141.47563
751.12	18671.01222
751.311	18879.85514
751.503	19062.37396
751.695	18900.13339
751.887	19131.33405
752.079	19597.95365
752.271	19190.15668
752.463	19496.49596
752.654	18999.50267
752.846	18918.38417
753.038	18494.64335
753.23	18695.34128
753.421	18575.72884
753.613	18514.91415
753.805	19115.10772
753.997	18898.10555
754.188	18559.51125
754.38	18628.43773
754.572	18596.00118
754.763	18596.00118
754.955	18608.16477
755.146	18648.71108
755.338	18658.84791
755.53	18792.66317
755.721	18788.60791
755.913	18900.13339
756.104	18744.00109
756.296	18569.64721
756.487	18721.69839
756.679	18958.94261
756.87	18956.91465
757.062	18630.46505
757.253	18344.65134
757.445	18312.22336
757.636	18569.64721
757.827	18486.53514
758.019	18231.15759
758.21	18336.54426
758.401	18251.42348
758.593	18099.4383
758.784	18060.93864
758.975	17773.24476
759.167	18012.30934
759.358	17890.74503
759.549	17769.19323
759.74	17027.97792
759.932	17607.14307
760.123	17894.79697
760.314	17943.42134
760.505	17696.26802
760.696	17829.96758
760.888	18239.2639
761.079	18210.89208
761.27	17742.85862
761.461	18020.41408
761.652	18042.70241
761.843	17467.3916
762.034	17761.09021
762.225	17854.27819
762.416	17943.42134
762.607	17734.75578
762.798	17906.95287
762.989	17690.19112
763.18	17605.11758
763.371	17643.60251
763.562	17676.01179
763.753	17773.24476
763.944	17896.82294
764.135	17584.86283
764.326	17829.96758
764.517	17552.4559
764.708	17520.04979
764.899	17226.40573
765.089	17011.78091
765.28	17054.29843
765.471	17323.60496
765.662	16942.94553
765.853	17339.8055
766.043	17317.52981
766.234	17191.98262
766.425	17104.91611
766.615	17279.05446
766.806	17021.90402
766.997	17230.45556
767.187	17005.70708
767.378	17232.48048
767.569	17181.85834
767.759	17408.65997
767.95	17451.18951
768.141	17110.99035
768.331	17145.41151
768.522	16884.23541
768.712	17068.47121
768.903	17339.8055
769.093	16647.39169
769.284	16768.84586
769.474	16685.85126
769.665	16764.79725
769.855	16673.70604
770.046	16768.84586
770.236	16473.32158
770.426	16542.13808
770.617	16362.00578
770.807	16467.24965
770.998	16457.12981
771.188	16702.04502
771.378	16473.32158
771.569	16451.05793
771.759	16163.67535
771.949	16447.01002
772.139	16762.77295
772.33	16372.12515
772.52	16485.46549
772.71	16447.01002
772.9	16024.04416
773.09	16017.9734
773.281	16281.0525
773.471	16323.5526
773.661	16400.45965
773.851	16022.02057
774.041	15935.00763
774.231	16129.27277
774.421	15811.57474
774.611	15777.17619
774.802	15845.97362
774.992	15637.56149
775.182	15979.52556
775.372	16078.68158
775.562	16210.22077
775.752	16258.79087
775.942	15637.56149
776.131	15924.89
776.321	15421.06498
776.511	15720.5204
776.701	15724.56721
776.891	15904.65485
777.081	15589.00084
777.271	15554.60398
777.461	15659.81861
777.651	15663.86537
777.84	15676.00567
778.03	15366.43603
778.22	15560.674
778.41	15479.7409
778.599	15364.41274
778.789	15591.02419
778.979	15797.41059
779.169	15829.78587
779.358	15625.42128
779.548	15651.7251
779.738	15568.76737
779.927	15313.83063
780.117	15289.55128
780.307	15530.32397
780.496	15481.76421
780.686	15649.70172
780.875	15206.59704
781.065	15305.73751
781.254	15093.29386
781.444	15158.03855
781.633	14866.68556
781.823	15263.24868
782.012	15204.57377
782.202	15117.57313
782.391	14977.96698
782.581	15121.61967
782.77	14793.84592
782.96	14996.17654
783.149	14763.4958
783.338	14943.57105
783.528	14959.75738
783.717	14836.33581
783.906	14561.15652
784.096	14591.50808
784.285	14591.50808
784.474	15012.3628
784.663	14725.05207
784.853	14990.10669
785.042	14729.09879
785.231	14971.89712
785.42	14551.03927
785.61	14401.30017
785.799	14510.56998
785.988	14777.65921
786.177	14658.28062
786.366	14759.44911
786.555	14696.72491
786.744	14522.71082
786.933	14476.17067
787.122	14773.61253
787.312	14536.87508
787.501	14544.96891
787.69	14468.07666
787.879	14370.94668
788.068	14097.747
788.257	14198.93621
788.445	14049.17423
788.634	14227.26827
788.823	14105.84233
789.012	13966.19258
789.201	14008.69589
789.39	14045.12644
789.579	13897.37529
789.768	14148.34227
789.957	13974.28853
790.145	14176.67503
790.334	14239.41046
790.523	14304.16768
790.712	13913.56787
790.9	14002.62405
791.089	13443.90342
791.278	13919.64004
791.467	13664.58659
791.655	14047.15033
791.844	13618.02388
792.033	13583.60682
792.221	13658.51329
792.41	13707.09885
792.599	13549.18875
792.787	13765.80395
792.976	13589.68049
793.164	13699.00138
793.353	13761.75541
793.541	13757.70685
793.73	13381.13226
793.918	13447.95304
794.107	13192.79507
794.295	13415.55562
794.484	13591.70504
794.672	13672.68427
794.861	13401.38144
795.049	13326.45748
795.238	13356.83273
795.426	13405.43122
795.614	13271.77968
795.803	13200.89637
795.991	12998.34155
796.179	13233.30083
796.368	13283.93057
796.556	13192.79507
796.744	12935.5396
796.932	13326.45748
797.121	13127.98208
797.309	13142.16033
797.497	13243.427
797.685	13429.72961
797.874	13055.06174
798.062	13127.98208
798.25	13016.57346
798.438	13500.59676
798.626	12961.8765
798.814	13174.56689
799.002	13032.77927
799.19	13219.12402
799.378	12747.10303
799.566	13154.31293
799.755	13016.57346
799.943	13221.14929
800.131	12961.8765
800.318	12741.02363
800.506	12923.38381
800.694	13121.90562
800.882	12809.9205
801.07	13257.60344
801.258	13184.6937
801.446	13192.79507
801.634	12917.30584
801.822	12777.49926
802.01	12988.21253
802.197	13178.61763
802.385	12818.02559
802.573	12850.44506
802.761	12949.72111
802.949	12931.48769
803.136	12919.33183
803.324	13225.19982
803.512	12860.57586
803.699	13093.54825
803.887	13233.30083
804.075	13277.85514
804.262	13046.95909
804.45	13154.31293
804.638	12844.36652
804.825	13219.12402
805.013	12969.97999
805.201	13198.87105
805.388	12886.9153
805.576	13040.88205
805.763	12931.48769
805.951	12955.79883
806.138	12826.13059
806.326	12836.26172
806.513	12992.26416
806.701	12807.89422
806.888	12822.0781
807.075	12783.57835
807.263	12589.02139
807.45	13002.39312
807.638	12566.72486
807.825	13093.54825
808.012	12795.73639
808.2	13099.62491
808.387	12785.6047
808.574	13235.32608
808.761	12822.0781
808.949	12858.54971
809.136	12439.01173
809.323	12775.47288
809.51	12850.44506
809.698	13048.98476
809.885	12550.50872
810.072	12805.86793
810.259	12941.61742
810.446	13182.66835
810.633	12951.74702
810.82	13008.47044
811.008	12886.9153
811.195	12976.05755
811.382	12957.82472
811.569	13111.77809
811.756	12890.96744
811.943	13085.44597
812.13	13123.93111
812.317	13271.77968
812.504	12872.73264
812.691	12986.18672
812.878	12955.79883
813.064	12978.08339
813.251	12951.74702
813.438	13223.17456
813.625	12773.4465
813.812	12763.31451
813.999	12809.9205
814.186	13079.36921
814.372	12927.43576
814.559	13196.84573
814.746	12755.20882
814.933	12795.73639
815.12	12931.48769
815.306	12591.04831
815.493	12712.65241
815.68	12732.91768
815.866	12572.8058
816.053	12836.26172
816.24	12447.12127
816.426	13109.75258
816.613	12757.23525
816.799	12888.94137
816.986	12530.23799
817.173	13000.36734
817.359	12572.8058
817.546	12852.47123
817.732	12769.39372
817.919	12998.34155
818.105	12923.38381
818.292	12832.20928
818.478	12967.95412
818.665	13016.57346
818.851	12599.15593
819.037	12793.71006
819.224	12536.31928
819.41	12412.65501
819.597	12526.18377
819.783	12564.69786
819.969	12528.21088
820.156	12680.22675
820.342	12449.14864
820.528	12933.51364
820.714	12516.0481
820.901	12759.26168
821.087	12801.81533
821.273	12844.36652
821.459	12704.54613
821.646	12803.84163
821.832	12582.94059
822.018	12773.4465
822.204	12230.15358
822.39	12288.96579
822.576	12108.45362
822.762	12153.08005
822.948	12118.59631
823.134	12355.88281
823.32	12047.59345
823.507	12299.10522
823.693	12207.84391
823.879	12605.23658
824.065	12181.4768
824.25	12226.09734
824.436	11913.67613
824.622	11897.44133
824.808	12019.18964
824.994	12140.90957
825.18	12094.25353
825.366	12215.95662
825.552	12088.16766
825.738	12264.63043
825.923	12037.44941
826.109	12307.21664
826.295	12033.39174
826.481	12098.31074
826.667	12177.42021
826.852	12112.51072
827.038	12092.22492
827.224	12071.93835
827.409	11976.58103
827.595	12108.45362
827.781	11846.70417
827.966	11854.82247
828.152	11702.58164
828.338	11731.00363
828.523	11806.11067
828.709	11905.5588
828.894	11609.18276
829.08	11578.72245
829.266	11820.31878
829.451	11696.49098
829.637	11438.57785
829.822	11653.85417
830.008	11651.82374
830.193	11684.30944
830.378	11284.16218
830.564	11824.37816
830.749	11592.93752
830.935	11629.48849
831.12	11282.13
831.305	11505.60916
831.491	11276.03343
831.676	11601.06021
831.861	11464.98537
832.047	11578.72245
832.232	11462.95408
832.417	11424.35774
832.602	11322.7715
832.788	11653.85417
832.973	11491.39127
833.158	11550.29094
833.343	11434.51501
833.528	11534.04355
833.714	11414.20023
833.899	11308.54744
834.084	11091.05947
834.269	11036.16009
834.454	10822.58514
834.639	11188.639
834.824	11030.05967
835.009	11152.04955
835.194	10861.24135
835.379	11210.99754
835.564	10686.23713
835.749	11042.26041
835.934	10633.31141
836.119	10859.20692
836.304	10588.52162
836.489	10771.71526
836.674	10806.30757
836.859	10769.68031
837.044	10702.52031
837.228	10979.21893
837.413	10700.48496
837.598	10824.61978
837.783	10421.52418
837.968	10877.51641
838.152	10421.52418
838.337	10702.52031
838.522	10511.14319
838.707	10773.75019
838.891	10360.40592
839.076	10598.70164
839.261	10680.13074
839.445	10437.8204
839.63	10623.13244
839.815	10525.39848
839.999	10513.1797
840.184	10973.11758
840.368	10551.87094
840.553	10649.59713
840.737	10409.30147
840.922	10568.16063
841.106	10295.20001
841.291	10419.4871
841.475	10276.85839
841.66	10472.44713
841.844	10299.27578
842.029	10164.74678
842.213	10456.15266
842.397	10425.59832
842.582	10189.21103
842.766	10240.17186
842.951	10019.95883
843.135	10213.67329
843.319	10034.23687
843.504	9999.56042
843.688	10007.71996
843.872	10026.07807
844.056	9930.19503
844.241	10136.20264
844.425	9822.03287
844.609	9905.70911
844.793	9795.49615
844.977	9977.12051
845.161	9556.54955
845.346	9958.75928
845.53	9907.74969
845.714	9966.91997
845.898	9852.64902
846.082	9952.63861
846.266	9930.19503
846.45	10021.99859
846.634	9456.41421
846.818	9985.28068
847.002	9552.46314
847.186	9807.74418
847.37	9701.57648
847.554	9977.12051
847.738	9750.58205
847.922	9975.08043
848.106	9854.68998
848.29	9726.08036
848.473	9401.22109
848.657	9521.81306
848.841	9172.14355
849.025	9409.39859
849.209	9114.84115
849.392	9163.95831
849.576	9098.46657
849.76	9184.42089
849.944	9354.19536
850.127	9419.62011
850.311	9208.97375
850.495	9540.20353
850.678	9272.39071
850.862	9540.20353
851.046	9075.94971
851.229	9008.38654
851.413	9323.52173
851.596	9319.43163
851.78	9141.4475
851.964	9346.01609
852.147	9182.37471
852.331	9323.52173
852.514	9131.21463
852.698	9082.09088
852.881	8666.17868
853.065	8936.70777
853.248	8696.93664
853.431	8756.39026
853.615	8625.16158
853.798	8819.92714
853.982	8524.63803
854.165	8756.39026
854.348	8571.82818
854.532	8854.76255
854.715	8811.72981
854.898	8867.05616
855.081	8787.13609
855.265	8813.77917
855.448	8493.85646
855.631	8590.29118
855.814	8565.67351
855.997	8754.34039
856.181	8508.22172
856.364	8495.90869
856.547	8473.33302
856.73	8502.06529
856.913	8091.24302
857.096	8639.51841
857.279	8477.43786
857.462	8588.23981
857.645	8413.80425
857.828	8395.32652
858.011	8286.48133
858.194	8354.25928
858.377	7901.99701
858.56	8356.31283
858.743	8056.28661
858.926	8272.10144
859.109	8136.4721
859.292	8237.17486
859.475	8146.75008
859.658	8473.33302
859.841	8006.92642
860.023	8343.99126
860.206	7965.78398
860.389	8095.35516
860.572	7875.24175
860.755	7829.95565
860.937	7786.71863
861.12	7712.57655
861.303	7803.19096
861.486	8177.58104
861.668	7792.89591
861.851	7710.51666
862.034	7784.65949
862.216	7757.88883
862.399	7397.1655
862.581	7580.70086
862.764	7531.22498
862.947	7700.21689
863.129	7675.49529
863.312	7512.66833
863.494	7440.48702
863.677	7819.66196
863.859	7646.64957
864.042	7555.96446
864.224	7374.46944
864.406	7500.29627
864.589	7252.6909
864.771	7450.80025
864.954	7110.17451
865.136	7143.2312
865.318	7110.17451
865.501	7236.17266
865.683	7060.57875
865.865	7347.64343
866.048	6944.80505
866.23	7302.23715
866.412	6994.43099
866.594	7145.29706
866.777	7075.04551
866.959	7180.41317
867.141	7008.90278
867.323	7072.97889
867.505	6924.12373
867.687	7170.08557
867.869	6924.12373
868.052	7087.44471
868.234	6888.96031
868.416	7211.39266
868.598	6859.99727
868.78	6922.05548
868.962	7112.24072
869.144	7046.11089
869.326	6855.85933
869.508	6975.82278
869.69	6955.14486
869.872	7238.23752
870.054	7050.24467
870.236	7405.41795
870.417	7151.49448
870.599	7050.24467
870.781	6820.68316
870.963	6891.02892
871.145	6799.98822
871.327	7037.84305
871.508	6810.33598
871.69	7184.54406
871.872	6704.76207
872.054	6864.13512
872.235	6530.74537
872.417	6802.05782
872.599	6503.79965
872.78	6822.75253
872.962	6644.70326
873.144	6648.84587
873.325	6619.84568
873.507	6835.16826
873.689	6389.75509
873.87	6677.84155
874.052	6719.25613
874.233	6762.73158
874.415	6615.70242
874.596	6779.291
874.778	6456.11684
874.959	6454.0434
875.141	6387.6809
875.322	6835.16826
875.503	6632.27488
875.685	6919.9872
875.866	6789.6399
876.048	6706.83272
876.229	6690.26689
876.41	6777.22115
876.592	6447.82293
876.773	6771.01147
876.954	6234.12612
877.136	6764.80159
877.317	6449.89644
877.498	6615.70242
877.679	6445.74939
877.86	6570.12054
878.042	6547.32541
878.223	6725.46753
878.404	6547.32541
878.585	6551.47019
878.766	6512.09106
878.947	6669.55753
879.128	6259.03559
879.309	6491.36184
879.49	6431.23398
879.672	6592.91288
879.853	6410.4957
880.034	6607.41564
880.215	6391.82926
880.396	6460.26366
880.576	6277.71549
880.757	6555.61487
880.938	6489.28879
881.119	6524.52748
881.3	6385.60669
881.481	6652.98838
881.662	6630.20341
881.843	6897.23464
882.023	6822.75253
882.204	6723.39709
882.385	6539.03558
882.566	6652.98838
882.747	6470.6303
882.927	6657.13081
883.108	6756.52142
883.289	6737.88971
883.469	6597.05664
883.65	6781.36083
883.831	6762.73158
884.011	6903.44016
884.192	6584.62508
884.373	6853.79032
884.553	6756.52142
884.734	6750.31105
884.914	6661.27314
885.095	6895.16609
885.275	6605.34389
885.456	7095.71041
885.636	6793.77929
885.817	7000.63332
885.997	6708.90335
886.178	6870.34172
886.358	6597.05664
886.538	6847.58317
886.719	6847.58317
886.899	6955.14486
887.08	6793.77929
887.26	6928.26018
887.44	6785.50041
887.621	6669.55753
887.801	6449.89644
887.981	6843.44496
888.161	6777.22115
888.342	6661.27314
888.522	6669.55753
888.702	6783.43063
888.882	6882.75431
889.062	6828.9605
889.242	6702.6914
889.423	6888.96031
889.603	6650.91714
889.783	6826.8912
889.963	6265.26243
890.143	6634.34634
890.323	6603.27211
890.503	6849.65225
890.683	6638.48917
890.863	6768.94153
891.043	6433.30768
891.223	6835.16826
891.403	6594.98477
891.583	6669.55753
891.763	6474.7768
891.943	6638.48917
892.122	6520.3821
892.302	6499.65381
892.482	6619.84568
892.662	6437.45501
892.842	6238.27793
893.022	6356.56527
893.201	6256.95993
893.381	6346.19222
893.561	6638.48917
893.741	6839.30666
893.92	6522.4548
894.1	6555.61487
894.28	6221.67011
894.459	6489.28879
894.639	6273.56456
894.819	6454.0434
894.998	6310.91951
895.178	6483.0695
895.357	6310.91951
895.537	6539.03558
895.716	6315.06959
895.896	6512.09106
896.075	6478.9232
896.255	6524.52748
896.434	6379.38391
896.614	6528.67276
896.793	6263.18684
896.973	6503.79965
897.152	5968.21462
897.331	6171.83765
897.511	6055.50931
897.69	6512.09106
897.87	6124.06886
898.049	6076.28764
898.228	5797.66227
898.407	5787.2576
898.587	5837.19462
898.766	6074.20991
898.945	5570.70679
899.124	5891.27771
899.304	5733.14382
899.483	5803.90478
899.662	5618.61981
899.841	5633.19955
900.02	5401.87043
900.199	5687.34278
900.378	5347.64335
900.557	5508.19281
900.737	5597.78959
900.916	5681.0963
901.095	5518.61328
901.274	5914.15422
901.453	5389.3579
901.632	5481.09684
901.811	5387.27239
901.989	5441.48788
902.168	5368.50179
902.347	5376.84452
902.526	5143.10675
902.705	5168.16409
902.884	5115.95753
903.063	5387.27239
903.242	5057.46895
903.42	5351.81522
903.599	5270.44672
903.778	5241.22883
903.957	5055.37973
904.135	5172.33999
904.314	4691.50696
904.493	5113.86896
904.672	4779.40154
904.85	4691.50696
905.029	4632.88849
905.207	4463.21517
905.386	4415.00992
905.565	4609.855
905.743	4551.2121
905.922	4471.59751
906.1	4211.58327
906.279	4461.11953
906.457	4163.31856
906.636	4435.97015
906.814	4142.33042
906.993	4486.26575
907.171	4226.2703
907.35	4299.68978
907.528	4161.21984
907.707	4272.42275
907.885	4146.52822
908.063	4219.97598
908.242	3873.4995
908.42	4247.24997
908.598	3759.98733
908.777	4112.94351
908.955	3860.88989
909.133	4125.5384
909.311	3858.78822
909.49	3835.66851
909.668	3892.41258
909.846	4115.04271
910.024	3900.81786
910.202	4129.73653
910.38	4075.15432
910.559	4094.04975
910.737	3995.3551
910.915	4243.0542
911.093	4010.05719
911.271	4320.66195
911.449	3892.41258
911.627	4091.95034
911.805	3873.4995
911.983	4094.04975
912.161	3841.97412
912.339	4253.54345
912.517	3961.74657
912.695	4201.09189
912.872	4169.61459
913.05	4303.88439
913.228	4148.62709
913.406	4324.85613
913.584	4083.5525
913.762	4154.92356
913.939	3886.1084
914.117	3965.94792
914.295	3959.64586
914.473	4253.54345
914.65	4131.83557
914.828	4469.50196
915.006	4167.51593
915.184	4094.04975
915.361	3915.52635
915.539	3984.853
915.716	3919.72859
915.894	3968.04857
916.072	3829.36272
916.249	4016.35778
916.427	3936.53675
916.604	4028.9584
916.782	3848.27956
916.959	4068.85546
917.137	3917.62748
917.314	4108.74504
917.492	3726.34312
917.669	3797.8311
917.847	3606.4457
918.024	3783.11483
918.201	3558.04869
918.379	3806.23997
918.556	3429.64434
918.733	3616.96548
918.911	3400.16503
919.088	3549.63081
919.265	3515.95637
919.442	3831.46467
919.62	3625.38097
919.797	3772.60262
919.974	3656.93636
920.151	3621.17327
920.328	3431.74987
920.506	3738.96028
920.683	3494.90746
920.86	3454.90953
921.037	3216.89591
921.214	3170.53178
921.391	3151.56236
921.568	3560.15311
921.745	3334.87716
921.922	3440.17181
922.099	3200.03715
922.276	3461.22543
922.453	3246.39619
922.63	3225.3249
922.807	3046.15307
922.984	3151.56236
923.161	3098.86266
923.338	3237.96787
923.514	3092.53803
923.691	3406.48232
923.868	3056.69577
924.045	3025.06651
924.222	2837.33025
924.399	3204.25194
924.575	2771.91237
924.752	3214.78863
924.929	2896.40582
925.105	3075.67165
925.282	2769.8019
925.459	3115.72765
925.635	2883.74771
925.812	2875.30869
925.989	2820.44949
926.165	2909.06341
926.342	2617.8134
926.518	2757.13878
926.695	2723.36811
926.871	2744.47517
927.048	2550.24214
927.224	2651.59435
927.401	2258.71126
927.577	2518.56394
927.754	2438.30112
927.93	2383.37545
928.107	2425.6266
928.283	2537.57117
928.459	2493.21952
928.636	2668.48362
928.812	2284.06939
928.988	2518.56394
929.165	2400.27641
929.341	2436.18873
929.517	2224.8984
929.693	2389.71339
929.87	2127.67423
930.046	2163.60693
930.222	2011.40648
930.398	2123.4467
930.574	2186.85625
930.751	2334.78157
930.927	2186.85625
931.103	2254.48478
931.279	2051.57414
931.455	2288.29561
931.631	1941.63603
931.807	1983.92196
931.983	1751.32312
932.159	1992.37885
932.335	1780.92976
932.511	1954.32206
932.687	1734.40471
932.863	2087.51149
933.039	1730.17507
933.215	2002.94982
933.391	1755.55269
933.566	1924.72099
933.742	1493.29932
933.918	1670.95878
934.094	1582.1305
934.27	1734.40471
934.445	1493.29932
934.621	1725.94542
934.797	1467.91872
934.973	1368.51155
935.148	1110.49485
935.324	1444.65315
935.5	1269.10683
935.675	1385.43182
935.851	1137.98605
936.027	1324.09619
936.202	875.80189
936.378	1036.48424
936.553	970.93789
936.729	1061.85857
936.904	960.36649
937.08	979.39514
937.255	816.61443
937.431	858.89049
937.606	710.94105
937.782	748.98054
937.957	660.22729
938.133	782.79623
938.308	624.30913
938.483	677.13115
938.659	632.76015
938.834	601.06987
939.009	444.77578
939.185	503.90488
939.36	404.65936
939.535	410.99314
939.71	421.54978
939.886	470.11538
940.061	453.22206
940.236	398.32572
940.411	292.78759
940.586	448.99889
940.761	250.58493
940.937	394.10337
941.112	389.88109
941.287	461.6686
941.462	318.11274
941.637	337.1083
941.812	345.55122
941.987	396.21454
942.162	337.1083
942.337	280.12601
942.512	267.46509
942.687	299.11864
942.862	290.67728
943.037	261.13489
943.212	195.73297
943.386	233.70599
943.561	227.37671
943.736	233.70599
943.911	216.8283
944.086	267.46509
944.26	168.31207
944.435	282.23623
944.61	297.00827
944.785	284.34646
944.959	242.1453
945.134	267.46509
945.309	259.02486
945.483	183.07674
945.658	208.38993
945.833	275.90563
946.007	305.44984
946.182	294.89792
946.357	212.60907
946.531	246.36508
946.706	210.49949
946.88	195.73297
947.055	244.25518
947.229	294.89792
947.404	235.81579
947.578	202.06136
947.752	204.17086
947.927	290.67728
948.101	303.33942
948.276	246.36508
948.45	261.13489
948.624	275.90563
948.799	284.34646
948.973	252.69488
949.147	185.18606
949.321	233.70599
949.496	250.58493
949.67	252.69488
949.844	275.90563
950.018	259.02486
950.193	246.36508
950.367	377.21465
950.541	261.13489
950.715	313.8917
950.889	294.89792
951.063	316.00221
951.237	208.38993
951.411	377.21465
951.585	301.22902
951.759	377.21465
951.933	318.11274
952.107	343.44047
952.281	278.01581
952.455	356.10527
952.629	267.46509
952.803	225.26699
952.977	284.34646
953.151	235.81579
953.325	284.34646
953.499	337.1083
953.672	290.67728
953.846	271.68532
954.02	208.38993
954.194	244.25518
954.368	322.33385
954.541	261.13489
954.715	259.02486
954.889	271.68532
955.062	227.37671
955.236	307.56028
955.41	280.12601
955.583	309.67074
955.757	271.68532
955.93	353.99443
956.104	278.01581
956.278	292.78759
956.451	349.77279
956.625	242.1453
956.798	237.92561
956.972	216.8283
957.145	305.44984
957.319	259.02486
957.492	269.5752
957.665	332.88694
957.839	235.81579
958.012	326.55503
958.185	334.99761
958.359	364.54882
958.532	250.58493
958.705	252.69488
958.879	250.58493
959.052	372.99264
959.225	292.78759
959.398	280.12601
959.572	254.80485
959.745	309.67074
959.918	292.78759
960.091	343.44047
960.264	242.1453
960.438	263.24494
960.611	195.73297
960.784	271.68532
960.957	318.11274
961.13	303.33942
961.303	286.45672
961.476	275.90563
961.649	267.46509
961.822	259.02486
961.995	235.81579
962.168	320.22329
962.341	237.92561
962.514	362.43791
962.686	263.24494
962.859	311.78121
963.032	250.58493
963.205	246.36508
963.378	223.15728
963.551	218.93794
963.723	267.46509
963.896	313.8917
964.069	290.67728
964.242	307.56028
964.414	242.1453
964.587	259.02486
964.76	199.95188
964.932	242.1453
965.105	195.73297
965.278	191.51415
965.45	225.26699
965.623	208.38993
965.795	183.07674
965.968	261.13489
966.14	244.25518
966.313	341.32972
966.485	174.63967
966.658	187.2954
966.83	204.17086
967.003	273.79547
967.175	244.25518
967.348	345.55122
967.52	189.40476
967.692	261.13489
967.865	256.91485
968.037	242.1453
968.209	227.37671
968.382	242.1453
968.554	208.38993
968.726	267.46509
968.898	218.93794
969.071	227.37671
969.243	187.2954
969.415	189.40476
969.587	149.33043
969.759	157.7665
969.932	149.33043
970.104	206.28038
970.276	151.43941
970.448	166.20292
970.62	218.93794
970.792	242.1453
970.964	71.31307
971.136	210.49949
971.308	218.93794
971.48	244.25518
971.652	174.63967
971.824	161.98467
971.996	174.63967
972.168	157.7665
972.339	153.54842
972.511	183.07674
972.683	178.85816
972.855	136.67694
973.027	176.7489
973.199	113.4809
973.37	199.95188
973.542	191.51415
973.714	170.42125
973.886	183.07674
974.057	275.90563
974.229	161.98467
974.401	233.70599
974.572	159.87558
974.744	153.54842
974.915	157.7665
975.087	199.95188
975.259	132.45929
975.43	164.09378
975.602	166.20292
975.773	235.81579
975.945	140.89469
976.116	191.51415
976.288	206.28038
976.459	90.28749
976.63	105.04662
976.802	140.89469
976.973	132.45929
977.145	124.02423
977.316	189.40476
977.487	204.17086
977.659	174.63967
977.83	166.20292
978.001	161.98467
978.172	121.91552
978.344	172.53045
978.515	81.85419
978.686	67.09678
978.857	115.58952
979.028	64.98867
979.2	166.20292
979.371	102.93811
979.542	170.42125
979.713	41.80097
979.884	90.28749
980.055	180.96744
980.226	94.50427
980.397	145.11251
980.568	109.26371
980.739	140.89469
980.91	119.80683
981.081	92.39587
981.252	128.24171
981.423	178.85816
981.594	56.55646
981.765	67.09678
981.936	145.11251
982.106	128.24171
982.277	149.33043
982.448	83.96248
982.619	121.91552
982.79	168.31207
982.96	159.87558
983.131	92.39587
983.302	149.33043
983.472	50.23254
983.643	151.43941
983.814	111.37229
983.984	174.63967
984.155	145.11251
984.326	124.02423
984.496	216.8283
984.667	161.98467
984.837	67.09678
985.008	41.80097
985.178	121.91552
985.349	117.69816
985.519	119.80683
985.69	98.72115
985.86	98.72115
986.031	73.42125
986.201	117.69816
986.371	16.50851
986.542	98.72115
986.712	124.02423
986.882	117.69816
987.053	92.39587
987.223	100.82962
987.393	126.13296
987.563	98.72115
987.734	136.67694
987.904	35.47754
988.074	64.98867
988.244	58.66448
988.414	75.52945
988.585	100.82962
988.755	39.69314
988.925	124.02423
989.095	50.23254
989.265	35.47754
989.435	107.15516
989.605	58.66448
989.775	90.28749
989.945	1.75615
990.115	90.28749
990.285	86.0708
990.455	107.15516
990.625	20.72369
990.795	140.89469
990.965	98.72115
991.134	107.15516
991.304	140.89469
991.474	90.28749
991.644	113.4809
991.814	115.58952
991.984	64.98867
992.153	77.63768
992.323	43.90883
992.493	75.52945
992.662	35.47754
992.832	86.0708
993.002	83.96248
993.171	14.40096
993.341	39.69314
993.511	33.36978
993.68	56.55646
993.85	202.06136
994.019	50.23254
994.189	90.28749
994.358	90.28749
994.528	58.66448
994.697	-2.45859
994.867	58.66448
995.036	-10.88778
995.206	46.01671
995.375	109.26371
995.544	136.67694
995.714	117.69816
995.883	31.26204
996.052	-4.56592
996.222	62.88058
996.391	67.09678
996.56	73.42125
996.73	-21.42373
996.899	136.67694
997.068	64.98867
997.237	50.23254
997.406	75.52945
997.576	107.15516
997.745	64.98867
997.914	39.69314
998.083	83.96248
998.252	27.04663
998.421	107.15516
998.59	67.09678
998.759	52.34049
998.928	88.17913
999.097	48.12461
999.266	60.77252
999.435	81.85419
999.604	56.55646
999.773	109.26371
999.942	86.0708
1000.111	86.0708
1000.28	-2.45859
1000.448	92.39587
1000.617	24.93896
1000.786	46.01671
1000.955	64.98867
1001.124	64.98867
1001.292	73.42125
1001.461	77.63768
1001.63	16.50851
1001.798	90.28749
1001.967	117.69816
1002.136	43.90883
1002.304	86.0708
1002.473	41.80097
1002.642	1.75615
1002.81	18.61609
1002.979	92.39587
1003.147	58.66448
1003.316	81.85419
1003.484	90.28749
1003.653	130.35049
1003.821	-17.20943
1003.99	-10.88778
1004.158	24.93896
1004.327	31.26204
1004.495	48.12461
1004.663	5.97099
1004.832	56.55646
1005	24.93896
1005.168	-25.63794
1005.337	90.28749
1005.505	121.91552
1005.673	107.15516
1005.842	58.66448
1006.01	48.12461
1006.178	115.58952
1006.346	100.82962
1006.514	71.31307
1006.683	-15.10224
1006.851	22.83131
1007.019	31.26204
1007.187	48.12461
1007.355	52.34049
1007.523	24.93896
1007.691	67.09678
1007.859	107.15516
1008.027	48.12461
1008.195	-15.10224
1008.363	107.15516
1008.531	39.69314
1008.699	67.09678
1008.867	14.40096
1009.035	31.26204
1009.203	10.18593
1009.37	64.98867
1009.538	43.90883
1009.706	20.72369
1009.874	56.55646
1010.042	-25.63794
1010.209	50.23254
1010.377	-82.51994
1010.545	50.23254
1010.713	134.5681
1010.88	14.40096
1011.048	-25.63794
1011.216	-6.67324
1011.383	-27.74501
1011.551	48.12461
1011.718	35.47754
1011.886	22.83131
1012.054	37.58533
1012.221	20.72369
1012.389	121.91552
1012.556	27.04663
1012.724	71.31307
1012.891	54.44846
1013.058	8.07845
1013.226	69.20492
1013.393	27.04663
1013.561	86.0708
1013.728	16.50851
1013.895	83.96248
1014.063	1.75615
1014.23	-12.99502
1014.397	41.80097
1014.565	-19.31659
1014.732	64.98867
1014.899	46.01671
1015.066	64.98867
1015.233	12.29343
1015.401	102.93811
1015.568	10.18593
1015.735	-0.35123
1015.902	-69.8811
1016.069	-2.45859
1016.236	100.82962
1016.403	73.42125
1016.57	86.0708
1016.737	56.55646
1016.904	24.93896
1017.071	100.82962
1017.238	33.36978
1017.405	24.93896
1017.572	56.55646
1017.739	33.36978
1017.906	16.50851
1018.073	132.45929
1018.24	126.13296
1018.407	-8.78052
1018.573	90.28749
1018.74	-65.66794
1018.907	48.12461
1019.074	31.26204
1019.241	-2.45859
1019.407	-2.45859
1019.574	1.75615
1019.741	33.36978
1019.907	62.88058
1020.074	16.50851
1020.241	33.36978
1020.407	60.77252
1020.574	56.55646
1020.74	69.20492
1020.907	48.12461
1021.073	35.47754
1021.24	39.69314
1021.406	88.17913
1021.573	52.34049
1021.739	86.0708
1021.906	52.34049
1022.072	1.75615
1022.239	39.69314
1022.405	48.12461
1022.571	22.83131
1022.738	-10.88778
1022.904	31.26204
1023.07	-10.88778
1023.237	73.42125
1023.403	10.18593
1023.569	-19.31659
1023.735	33.36978
1023.902	90.28749
1024.068	12.29343
1024.234	-10.88778
1024.4	20.72369
1024.566	35.47754
1024.732	1.75615
1024.898	-0.35123
1025.065	12.29343
1025.231	73.42125
1025.397	18.61609
1025.563	81.85419
1025.729	-19.31659
1025.895	33.36978
1026.061	1.75615
1026.227	39.69314
1026.392	5.97099
1026.558	60.77252
1026.724	48.12461
1026.89	27.04663
1027.056	73.42125
1027.222	20.72369
1027.388	58.66448
1027.553	-10.88778
1027.719	54.44846
1027.885	35.47754
1028.051	18.61609
1028.216	-2.45859
1028.382	-0.35123
1028.548	64.98867
1028.713	33.36978
1028.879	107.15516
1029.045	33.36978
1029.21	41.80097
1029.376	37.58533
1029.541	20.72369
1029.707	115.58952
1029.873	-2.45859
1030.038	41.80097
1030.204	56.55646
1030.369	39.69314
1030.534	1.75615
1030.7	16.50851
1030.865	31.26204
1031.031	-34.06606
1031.196	75.52945
1031.361	-0.35123
1031.527	35.47754
1031.692	12.29343
1031.857	41.80097
1032.023	48.12461
1032.188	50.23254
1032.353	60.77252
1032.518	16.50851
1032.684	56.55646
1032.849	62.88058
1033.014	90.28749
1033.179	50.23254
1033.344	14.40096
1033.509	75.52945
1033.674	24.93896
1033.839	-31.95906
1034.004	52.34049
1034.17	-10.88778
1034.335	86.0708
1034.5	-44.60065
1034.664	35.47754
1034.829	-10.88778
1034.994	39.69314
1035.159	48.12461
1035.324	1.75615
1035.489	-61.45468
1035.654	111.37229
1035.819	18.61609
1035.984	5.97099
1036.148	18.61609
1036.313	41.80097
1036.478	69.20492
1036.643	10.18593
1036.807	64.98867
1036.972	31.26204
1037.137	-25.63794
1037.301	-4.56592
1037.466	50.23254
1037.631	5.97099
1037.795	33.36978
1037.96	31.26204
1038.124	90.28749
1038.289	33.36978
1038.454	1.75615
1038.618	-2.45859
1038.783	-10.88778
1038.947	52.34049
1039.111	-2.45859
1039.276	58.66448
1039.44	-19.31659
1039.605	-25.63794
1039.769	-19.31659
1039.933	48.12461
1040.098	43.90883
1040.262	81.85419
1040.426	39.69314
1040.591	121.91552
1040.755	24.93896
1040.919	31.26204
1041.083	58.66448
1041.248	14.40096
1041.412	73.42125
1041.576	-0.35123
1041.74	-27.74501
1041.904	-27.74501
1042.068	77.63768
1042.232	145.11251
1042.397	-0.35123
1042.561	-34.06606
1042.725	-6.67324
1042.889	-27.74501
1043.053	16.50851
1043.217	-65.66794
1043.381	126.13296
1043.544	81.85419
1043.708	1.75615
1043.872	-10.88778
1044.036	50.23254
1044.2	31.26204
1044.364	5.97099
1044.528	58.66448
1044.691	-15.10224
1044.855	10.18593
1045.019	-50.9211
1045.183	24.93896
1045.346	18.61609
1045.51	69.20492
1045.674	90.28749
1045.837	8.07845
1046.001	22.83131
1046.165	60.77252
1046.328	10.18593
1046.492	58.66448
1046.655	43.90883
1046.819	54.44846
1046.983	14.40096
1047.146	56.55646
1047.31	5.97099
1047.473	56.55646
1047.636	1.75615
1047.8	29.15432
1047.963	75.52945
1048.127	56.55646
1048.29	56.55646
