Data from mixed_try1_USB4F045381__42__00064.txt Node

Date: Thu Apr 03 19:38:59 EDT 2025
User: mmckonesweet
Spectrometer: USB4F04538
Trigger mode: 4
Integration Time (sec): 2.700000E-3
Scans to average: 1
Electric dark correction enabled: true
Nonlinearity correction enabled: true
Boxcar width: 0
XAxis mode: Wavelengths
Number of Pixels in Spectrum: 3648
>>>>>Begin Spectral Data<<<<<
345.52	-37.40208
345.736	-37.40208
345.952	-37.40208
346.168	38.46358
346.384	4.74166
346.6	25.81715
346.816	21.60186
347.032	17.38667
347.248	13.17157
347.464	-20.54576
347.68	49.00291
347.896	-77.42941
348.112	-10.00976
348.328	-45.82964
348.544	4.74166
348.76	25.81715
348.975	-3.68787
349.191	13.17157
349.407	25.81715
349.623	21.60186
349.839	-12.11701
350.055	-50.04327
350.27	34.24801
350.486	-45.82964
350.702	13.17157
350.918	0.52684
351.133	4.74166
351.349	6.8491
351.565	17.38667
351.781	34.24801
351.996	84.84094
352.212	13.17157
352.428	21.60186
352.644	57.4348
352.859	55.32679
353.075	6.8491
353.291	-71.10991
353.506	101.70815
353.722	-39.50901
353.938	-3.68787
354.153	30.03253
354.369	13.17157
354.584	-16.33143
354.8	23.70949
355.016	38.46358
355.231	36.35578
355.447	-12.11701
355.662	-33.18815
355.878	57.4348
356.093	-3.68787
356.309	-12.11701
356.524	8.95656
356.74	-1.58052
356.955	51.11085
357.171	42.67924
357.386	25.81715
357.602	63.75895
357.817	-37.40208
358.033	-37.40208
358.248	-24.75999
358.464	-24.75999
358.679	8.95656
358.895	-60.57691
359.11	49.00291
359.325	-10.00976
359.541	34.24801
359.756	32.14026
359.972	55.32679
360.187	23.70949
360.402	57.4348
360.618	46.895
360.833	-33.18815
361.048	-41.61591
361.264	23.70949
361.479	-35.29512
361.694	36.35578
361.909	11.06405
362.125	21.60186
362.34	-12.11701
362.555	38.46358
362.77	72.19148
362.986	30.03253
363.201	38.46358
363.416	-71.10991
363.631	13.17157
363.847	-7.90249
364.062	38.46358
364.277	-24.75999
364.492	-28.97412
364.707	13.17157
364.922	-28.97412
365.138	40.5714
365.353	44.78711
365.568	8.95656
365.783	49.00291
365.998	-31.08114
366.213	49.00291
366.428	46.895
366.643	65.86705
366.858	-35.29512
367.073	-22.65289
367.288	49.00291
367.503	-52.15005
367.718	38.46358
367.933	-12.11701
368.148	46.895
368.363	32.14026
368.578	91.16598
368.793	17.38667
369.008	38.46358
369.223	11.06405
369.438	6.8491
369.653	4.74166
369.868	105.92518
370.083	11.06405
370.298	-10.00976
370.513	40.5714
370.728	-28.97412
370.943	23.70949
371.157	51.11085
371.372	-79.53586
371.587	42.67924
371.802	-35.29512
372.017	15.2791
372.232	80.62436
372.446	72.19148
372.661	-37.40208
372.876	59.54283
373.091	-50.04327
373.306	55.32679
373.52	30.03253
373.735	15.2791
373.95	-1.58052
374.165	-10.00976
374.379	42.67924
374.594	36.35578
374.809	49.00291
375.023	-5.79519
375.238	-16.33143
375.453	-28.97412
375.667	13.17157
375.882	4.74166
376.097	13.17157
376.311	23.70949
376.526	72.19148
376.741	-16.33143
376.955	80.62436
377.17	30.03253
377.384	51.11085
377.599	15.2791
377.813	46.895
378.028	40.5714
378.242	-14.22423
378.457	55.32679
378.672	-16.33143
378.886	-33.18815
379.101	-24.75999
379.315	19.49425
379.53	49.00291
379.744	55.32679
379.958	-20.54576
380.173	34.24801
380.387	72.19148
380.602	17.38667
380.816	-16.33143
381.031	38.46358
381.245	11.06405
381.459	-24.75999
381.674	30.03253
381.888	38.46358
382.103	99.59967
382.317	17.38667
382.531	-31.08114
382.746	74.29967
382.96	-10.00976
383.174	46.895
383.388	6.8491
383.603	19.49425
383.817	-26.86706
384.031	4.74166
384.246	80.62436
384.46	49.00291
384.674	46.895
384.888	34.24801
385.103	23.70949
385.317	38.46358
385.531	38.46358
385.745	-39.50901
385.959	4.74166
386.174	4.74166
386.388	-20.54576
386.602	0.52684
386.816	-75.32294
387.03	4.74166
387.244	46.895
387.458	4.74166
387.672	17.38667
387.887	-33.18815
388.101	0.52684
388.315	67.97517
388.529	-3.68787
388.743	-45.82964
388.957	42.67924
389.171	72.19148
389.385	34.24801
389.599	30.03253
389.813	57.4348
390.027	72.19148
390.241	21.60186
390.455	82.73264
390.669	82.73264
390.883	40.5714
391.097	17.38667
391.311	74.29967
391.525	-12.11701
391.738	-1.58052
391.952	-45.82964
392.166	40.5714
392.38	-33.18815
392.594	-18.43861
392.808	38.46358
393.022	-18.43861
393.236	0.52684
393.449	34.24801
393.663	97.49122
393.877	80.62436
394.091	57.4348
394.305	0.52684
394.518	55.32679
394.732	-26.86706
394.946	38.46358
395.16	-3.68787
395.373	105.92518
395.587	78.51611
395.801	4.74166
396.015	55.32679
396.228	-12.11701
396.442	-16.33143
396.656	72.19148
396.869	127.01161
397.083	76.40788
397.297	21.60186
397.51	162.86346
397.724	32.14026
397.938	55.32679
398.151	53.21881
398.365	51.11085
398.578	40.5714
398.792	36.35578
399.005	21.60186
399.219	38.46358
399.433	-3.68787
399.646	38.46358
399.86	46.895
400.073	114.35949
400.287	15.2791
400.5	15.2791
400.714	49.00291
400.927	-1.58052
401.141	65.86705
401.354	34.24801
401.567	4.74166
401.781	30.03253
401.994	-7.90249
402.208	-20.54576
402.421	15.2791
402.635	32.14026
402.848	-14.22423
403.061	108.03372
403.275	46.895
403.488	4.74166
403.701	-24.75999
403.915	27.92483
404.128	4.74166
404.341	-52.15005
404.555	-3.68787
404.768	67.97517
404.981	78.51611
405.195	120.68545
405.408	30.03253
405.621	25.81715
405.834	76.40788
406.048	30.03253
406.261	78.51611
406.474	-45.82964
406.687	63.75895
406.9	30.03253
407.114	114.35949
407.327	42.67924
407.54	38.46358
407.753	-7.90249
407.966	21.60186
408.179	65.86705
408.392	67.97517
408.605	-69.00336
408.819	-5.79519
409.032	162.86346
409.245	30.03253
409.458	53.21881
409.671	-75.32294
409.884	-1.58052
410.097	51.11085
410.31	61.65088
410.523	80.62436
410.736	30.03253
410.949	23.70949
411.162	80.62436
411.375	72.19148
411.588	67.97517
411.801	30.03253
412.014	105.92518
412.227	25.81715
412.44	17.38667
412.653	116.46812
412.865	44.78711
413.078	65.86705
413.291	6.8491
413.504	46.895
413.717	27.92483
413.93	86.94927
414.143	89.05761
414.356	32.14026
414.568	63.75895
414.781	105.92518
414.994	0.52684
415.207	6.8491
415.42	4.74166
415.632	105.92518
415.845	13.17157
416.058	4.74166
416.271	63.75895
416.483	93.27437
416.696	55.32679
416.909	55.32679
417.121	-28.97412
417.334	46.895
417.547	63.75895
417.759	40.5714
417.972	84.84094
418.185	120.68545
418.397	-12.11701
418.61	72.19148
418.823	65.86705
419.035	59.54283
419.248	114.35949
419.46	40.5714
419.673	173.40929
419.885	63.75895
420.098	74.29967
420.311	30.03253
420.523	59.54283
420.736	38.46358
420.948	19.49425
421.161	67.97517
421.373	38.46358
421.586	40.5714
421.798	30.03253
422.01	93.27437
422.223	72.19148
422.435	137.55563
422.648	82.73264
422.86	46.895
423.073	97.49122
423.285	80.62436
423.497	65.86705
423.71	-3.68787
423.922	150.20917
424.134	80.62436
424.347	59.54283
424.559	65.86705
424.771	65.86705
424.984	38.46358
425.196	46.895
425.408	-3.68787
425.621	80.62436
425.833	93.27437
426.045	55.32679
426.257	101.70815
426.47	8.95656
426.682	21.60186
426.894	124.90287
427.106	59.54283
427.318	133.33796
427.531	95.38278
427.743	148.10019
427.955	74.29967
428.167	122.79415
428.379	70.08331
428.591	76.40788
428.804	65.86705
429.016	133.33796
429.228	120.68545
429.44	105.92518
429.652	127.01161
429.864	34.24801
430.076	30.03253
430.288	57.4348
430.5	80.62436
430.712	116.46812
430.924	80.62436
431.136	139.6645
431.348	173.40929
431.56	74.29967
431.772	105.92518
431.984	122.79415
432.196	118.57677
432.408	118.57677
432.62	65.86705
432.832	112.25088
433.044	127.01161
433.256	108.03372
433.468	192.39306
433.679	139.6645
433.891	38.46358
434.103	135.44678
434.315	139.6645
434.527	114.35949
434.739	156.53622
434.95	173.40929
435.162	131.22915
435.374	97.49122
435.586	118.57677
435.798	127.01161
436.009	84.84094
436.221	97.49122
436.433	143.8823
436.645	183.95562
436.856	158.64528
437.068	133.33796
437.28	190.28367
437.491	133.33796
437.703	177.62776
437.915	150.20917
438.126	127.01161
438.338	228.25576
438.55	148.10019
438.761	135.44678
438.973	164.97259
439.184	167.08173
439.396	139.6645
439.608	141.77339
439.819	114.35949
440.031	139.6645
440.242	175.51851
440.454	143.8823
440.665	143.8823
440.877	164.97259
441.088	124.90287
441.3	139.6645
441.511	196.6119
441.723	156.53622
441.934	181.84631
442.146	283.11549
442.357	162.86346
442.569	262.01407
442.78	205.04983
442.991	262.01407
443.203	177.62776
443.414	183.95562
443.626	167.08173
443.837	268.3443
444.048	243.02442
444.26	148.10019
444.471	207.15936
444.682	253.57403
444.894	150.20917
445.105	194.50247
445.316	262.01407
445.528	160.75436
445.739	190.28367
445.95	249.35413
446.161	207.15936
446.373	283.11549
446.584	217.70731
446.795	194.50247
447.006	251.46407
447.217	224.03632
447.429	283.11549
447.64	321.10269
447.851	310.5501
448.062	337.98775
448.273	262.01407
448.484	287.336
448.695	224.03632
448.907	291.55658
449.118	243.02442
449.329	325.32385
449.54	359.09566
449.751	325.32385
449.962	308.43963
450.173	209.26891
450.384	359.09566
450.595	333.76638
450.806	333.76638
451.017	276.78487
451.228	299.99796
451.439	321.10269
451.65	257.79401
451.861	295.77723
452.072	365.42837
452.283	451.9903
452.494	350.65229
452.705	401.31658
452.915	401.31658
453.126	384.42741
453.337	456.21352
453.548	413.98415
453.759	333.76638
453.97	445.65559
454.181	517.45693
454.391	392.87187
454.602	437.20952
454.813	538.57818
455.024	504.78487
455.235	530.12951
455.445	470.99526
455.656	409.76156
455.867	536.46599
456.078	468.88354
456.288	405.53904
456.499	462.54846
456.71	506.89684
456.921	511.12083
457.131	544.91483
457.342	559.70082
457.553	604.06272
457.763	494.22521
457.974	701.25563
458.184	570.26265
458.395	646.31739
458.606	536.46599
458.816	692.80309
459.027	705.48196
459.237	580.82481
459.448	766.76868
459.659	728.7276
459.869	764.6552
460.08	790.01762
460.29	758.31482
460.501	800.58571
460.711	817.49515
460.922	800.58571
461.132	916.84943
461.343	859.77128
461.553	942.21932
461.764	935.87675
461.974	872.4548
462.184	878.79667
462.395	1014.10618
462.605	1003.53411
462.816	976.04747
463.026	969.70455
463.236	1043.70879
463.447	1179.04797
463.657	1090.22941
463.867	1204.426
464.078	1200.1963
464.288	1215.00033
464.498	1363.04772
464.709	1272.10301
464.919	1200.1963
465.129	1221.34497
465.339	1375.73791
465.55	1327.09245
465.76	1276.33291
465.97	1409.57856
466.18	1407.46352
466.391	1714.13757
466.601	1432.84411
466.811	1671.84
467.021	1555.51661
467.231	1813.5314
467.441	1528.02125
467.651	1726.8266
467.862	1618.9665
468.072	1931.94516
468.282	1936.17392
468.492	1663.38034
468.702	1967.88883
468.912	2096.84781
469.122	2033.42853
469.332	2134.89618
469.542	2048.22693
469.752	2303.96753
469.962	2333.54905
470.172	2405.38178
470.382	2426.50679
470.592	2430.73166
470.802	2371.5796
471.012	2489.87535
471.222	2559.56911
471.432	2563.79256
471.642	2694.69557
471.852	2711.58275
472.062	2796.00598
472.272	2888.84618
472.482	2768.57078
472.691	3179.84037
472.901	2996.42148
473.111	3021.72767
473.321	3089.19997
473.531	3131.36199
473.741	3074.44177
473.95	3371.55978
474.16	3287.30482
474.37	3552.61218
474.58	3468.41833
474.79	3701.98302
474.999	3592.59394
475.209	3518.93815
475.419	3640.98389
475.628	3964.72253
475.838	3847.05351
476.048	3987.82864
476.258	4006.7318
476.467	4384.43901
476.677	4302.66097
476.886	4493.42486
477.096	4541.61116
477.306	4526.947
477.515	4241.83042
477.725	4665.16572
477.935	4648.41712
478.144	4748.88711
478.354	4644.22975
478.563	4926.6745
478.773	5008.19216
478.982	5242.09847
479.192	5233.7497
479.401	5052.07176
479.611	5321.39314
479.82	5465.28901
480.03	5463.20437
480.239	5519.48162
480.449	5402.73933
480.658	5854.70403
480.868	5927.49753
481.077	6027.28164
481.287	5798.52929
481.496	6000.26214
481.705	6056.37512
481.915	6386.47095
482.124	6282.73106
482.333	6320.08415
482.543	6589.63234
482.752	6481.86017
482.961	6486.00642
483.171	6885.68495
483.38	6614.49396
483.589	6817.40661
483.799	6924.9855
484.008	7173.01178
484.217	6896.02799
484.426	7173.01178
484.636	7020.10043
484.845	7309.28958
485.054	6937.3945
485.263	7309.28958
485.472	7259.74513
485.682	7602.17093
485.891	7527.96051
486.1	7445.47182
486.309	7645.44757
486.518	7849.34071
486.727	7880.21575
486.936	7993.3846
487.146	8028.35155
487.355	8114.71539
487.564	8314.04008
487.773	8650.62724
487.982	8180.49262
488.191	8498.816
488.4	8408.50062
488.609	8718.29388
488.818	8910.93225
489.027	8826.92879
489.236	8910.93225
489.445	9048.14191
489.654	8951.89865
489.863	9181.1811
490.072	9160.71825
490.281	9295.74183
490.49	9295.74183
490.698	9350.95777
490.907	9287.56067
491.116	9743.26581
491.325	9620.73195
491.534	9395.93965
491.743	9657.49794
491.952	9833.08909
492.16	9806.55342
492.369	10118.70101
492.578	10120.74009
492.787	9955.52894
492.996	10145.20793
493.204	10112.5837
493.413	10273.63151
493.622	10446.81692
493.831	10226.753
494.039	10424.41003
494.248	10053.44312
494.457	10695.2269
494.665	10615.83732
494.874	10632.12388
495.083	10471.25902
495.291	11197.61644
495.5	10807.15538
495.709	10961.76201
495.917	10754.24823
496.126	11250.46068
496.335	11136.63352
496.543	11124.43579
496.752	11051.24127
496.96	11321.58618
497.169	11299.2338
497.377	11226.0719
497.586	11230.1368
497.794	11575.50707
498.003	11144.76513
498.211	11622.21238
498.42	11616.12065
498.628	11713.57845
498.837	11760.26972
499.045	11526.76587
499.254	11918.58029
499.462	11951.04799
499.671	12228.97051
499.879	12383.08682
500.087	12192.46324
500.296	12212.74535
500.504	12218.82984
500.713	12417.55474
500.921	12125.52704
501.129	12387.14197
501.338	12269.53138
501.546	12531.08262
501.754	12650.6708
501.962	12569.59642
502.171	12752.00029
502.379	13070.08519
502.587	12533.10972
502.795	12960.69473
503.004	12670.93788
503.212	12741.86799
503.42	13049.82879
503.628	12910.04599
503.837	13068.05957
504.045	13175.4108
504.253	13155.15685
504.461	13386.02585
504.669	13448.79671
504.877	13610.76939
505.085	13511.56389
505.294	13515.61326
505.502	13481.19312
505.71	13718.06408
505.918	13610.76939
506.126	13817.25317
506.334	13560.1554
506.542	13877.97771
506.75	13675.55219
506.958	13979.17982
507.166	13995.37156
507.374	14236.20627
507.582	13697.8205
507.79	13882.02592
507.998	13993.3476
508.206	14300.96359
508.414	13894.17049
508.622	14371.78983
508.83	14161.32817
509.037	14205.85062
509.245	14124.89996
509.453	14412.26107
509.661	14215.96922
509.869	14653.05351
510.077	14282.75079
510.285	14555.92928
510.492	14701.61473
510.7	14861.45867
510.908	14922.15784
511.116	14663.17048
511.324	14642.93652
511.531	14833.13222
511.739	14942.39079
511.947	14869.55192
512.155	14827.06225
512.362	14831.1089
512.57	14812.89896
512.778	15260.04517
512.985	15033.43863
513.193	15185.18409
513.401	15098.18344
513.608	15268.13827
513.816	15266.11499
514.024	15434.04783
514.231	15110.32307
514.439	15553.4237
514.646	15478.56063
514.854	15401.67504
515.061	15059.74123
515.269	15383.46539
515.477	15553.4237
515.684	15806.34749
515.892	15606.03074
516.099	15800.27714
516.307	15658.63831
516.514	16022.86373
516.722	15905.49798
516.929	16105.83206
517.136	16156.42378
517.344	15654.59155
517.551	16273.80058
517.759	16310.22907
517.966	16117.97398
518.173	16207.01652
518.381	16488.33281
518.588	16340.5866
518.796	16557.14985
519.003	16767.66501
519.21	16559.17392
519.418	16632.04183
519.625	16455.94917
519.832	16702.88845
520.039	16874.95671
520.247	16832.44407
520.454	16864.83455
520.661	16953.91175
520.868	16804.10292
521.076	17140.18079
521.283	16974.15727
521.49	17227.24944
521.697	17099.68554
521.904	17158.40402
522.112	17061.21608
522.319	17330.52392
522.526	17051.09271
522.733	17352.79982
522.94	17531.02052
523.147	17115.8835
523.354	17373.05097
523.561	17826.75997
523.768	17239.39898
523.975	17514.81763
524.183	17443.93239
524.39	17652.54874
524.597	17646.47205
524.804	17774.08883
525.011	17806.50156
525.218	17928.05717
525.425	18266.45425
525.632	17891.58918
525.838	17745.72839
526.045	17903.74505
526.252	18183.36534
526.459	18213.763
526.666	18284.69411
526.873	18191.4713
527.08	18501.56916
527.287	18645.50111
527.494	18187.41831
527.701	18639.41908
527.907	18574.5463
528.114	18491.43385
528.321	18479.27159
528.528	18444.81261
528.735	18937.48024
528.941	18941.53609
529.148	18775.25946
529.355	19049.02193
529.562	18923.2849
529.768	18945.59195
529.975	18456.97448
530.182	18860.42218
530.388	18951.67578
530.595	19073.35993
530.802	18669.82957
531.008	19450.67431
531.215	19373.57699
531.422	19515.60303
531.628	19223.45722
531.835	19280.25664
532.042	19363.43305
532.248	19755.06458
532.455	19631.26787
532.661	19962.1038
532.868	19775.36062
533.074	19874.81723
533.281	19990.52436
533.487	20057.51894
533.694	19720.56229
533.9	20479.8932
534.107	20004.73495
534.313	20358.03582
534.52	20226.04072
534.726	20498.1731
534.933	20079.85149
535.139	20337.72773
535.345	20309.2971
535.552	20120.45742
535.758	20262.59143
535.965	20609.891
536.171	20337.72773
536.377	20754.1273
536.584	20412.86977
536.79	20638.3303
536.996	21004.05087
537.203	20680.99078
537.409	20898.38451
537.615	21071.11412
537.821	20733.81106
538.028	21205.25396
538.234	20993.89016
538.44	20863.84215
538.646	20644.42454
538.853	21125.98737
539.059	20888.22487
539.265	20882.12913
539.471	21178.83108
539.677	21343.47711
539.883	21392.26619
540.09	21593.54543
540.296	21650.47992
540.502	21981.98053
540.708	21662.68057
540.914	21815.20053
541.12	21469.52028
541.326	21721.65236
541.532	21996.21904
541.738	21835.53817
541.944	21713.51812
542.15	22209.81881
542.356	21998.25313
542.562	22136.57995
542.768	22297.30486
542.974	21967.74221
543.18	21880.28234
543.386	22348.17196
543.592	22234.23283
543.798	22232.19831
544.004	22380.72811
544.21	22891.57207
544.415	22641.21047
544.621	22736.87091
544.827	22337.99836
545.033	22824.39676
545.239	22702.26944
545.445	23306.91837
545.651	22804.04134
545.856	22960.78686
546.062	22970.96583
546.268	23203.069
546.474	22600.50625
546.679	22366.48468
546.885	22824.39676
547.091	22675.81016
547.297	22555.73325
547.502	22934.32192
547.708	22964.85844
547.914	23372.083
548.119	23260.0833
548.325	23498.34864
548.531	23111.44421
548.736	23137.91292
548.942	23292.66404
549.147	23040.18508
549.353	23630.73665
549.559	23528.89857
549.764	23596.11085
549.97	23219.35854
550.175	23795.73031
550.381	24087.06201
550.586	23583.89019
550.792	24329.54229
550.997	23545.19215
551.203	23726.47134
551.408	24199.12796
551.614	24492.5754
551.819	24135.96249
552.025	24009.63953
552.23	24042.23798
552.435	24549.64088
552.641	24779.96074
552.846	24321.39107
553.052	24580.21249
553.257	24757.53885
553.462	24781.99911
553.668	24327.50448
553.873	24519.06984
554.078	24716.77253
554.283	24333.61791
554.489	24973.61628
554.694	24523.14595
554.899	24940.99913
555.105	24924.69078
555.31	25028.65906
555.515	24965.46194
555.72	25146.90466
555.925	25032.73636
556.131	25285.54688
556.336	24751.42384
556.541	25038.85234
556.746	24936.92203
556.951	24926.72932
557.156	25118.36193
557.361	24806.45971
557.567	25668.90234
557.772	25568.97832
557.977	25326.3259
558.182	25352.83272
558.387	25159.13739
558.592	25638.31285
558.797	25367.10577
559.002	25381.37892
559.207	25609.76306
559.412	25691.33491
559.617	26072.72343
559.822	25856.52733
560.027	25976.86039
560.232	25732.122
560.437	25628.11645
560.642	25193.79722
560.847	26060.48537
561.051	26029.89052
561.256	25524.11603
561.461	25742.31889
561.666	25752.51583
561.871	25793.30407
562.076	26046.20772
562.281	26127.79545
562.485	25862.64581
562.69	25962.58325
562.895	25982.97919
563.1	26341.97629
563.305	26170.63012
563.509	26594.93695
563.714	26472.53358
563.919	26811.19637
564.123	26494.97377
564.328	26484.77366
564.533	26246.10257
564.737	26182.86873
564.942	26543.93486
565.147	26701.02437
565.351	26709.18511
565.556	26441.93362
565.761	26038.04911
565.965	26427.65376
566.17	26631.65905
566.374	26564.33558
566.579	27015.22976
566.784	26701.02437
566.988	26752.02939
567.193	26590.85675
567.397	26362.37543
567.602	26452.13357
567.806	26599.01716
568.011	26803.03534
568.215	27080.52341
568.42	26772.43166
568.624	26735.70768
568.828	26974.42195
569.033	27066.2403
569.237	27164.18295
569.442	27431.50026
569.646	27005.02775
569.85	27496.80249
570.055	27723.32936
570.259	27827.41423
570.463	28135.60463
570.668	27655.98198
570.872	27337.63058
571.076	27290.69676
571.281	27392.72768
571.485	27555.98374
571.689	27707.00261
571.893	27604.9621
572.098	27825.37332
572.302	27633.53314
572.506	27515.16897
572.71	27715.16598
572.914	27896.80583
573.119	27970.28073
573.323	27702.92093
573.527	27666.18604
573.731	27700.88009
573.935	28200.91979
574.139	28298.89464
574.343	27778.43274
574.547	28223.37214
574.751	28333.59466
574.955	28372.37741
575.159	28709.19114
575.364	28792.88869
575.568	28088.66006
575.772	27862.10986
575.976	27768.22834
576.18	28117.23495
576.383	28372.37741
576.587	28478.52166
576.791	28174.38537
576.995	28323.38874
577.199	27951.91187
577.403	28000.89571
577.607	28682.65326
577.811	29025.6179
578.015	28202.96091
578.219	29046.03338
578.422	28897.00272
578.626	29299.19404
578.83	28786.76442
579.034	28754.1018
579.238	28772.47449
579.442	29148.11237
579.645	28598.95803
579.849	28737.7706
580.053	28825.55163
580.257	29039.90873
580.46	28984.78724
580.664	29380.86219
580.868	29095.03097
581.071	29466.61556
581.275	29282.86061
581.479	29321.65261
581.682	28994.99486
581.886	29503.36757
582.09	29264.48558
582.293	29319.61092
582.497	29309.40247
582.7	28976.62115
582.904	29141.98756
583.107	29717.76121
583.311	29052.15805
583.515	29431.90564
583.718	29487.0333
583.922	29546.24535
584.125	29350.23644
584.329	29511.53473
584.532	29993.42786
584.735	30213.97602
584.939	29607.50015
585.142	30193.55432
585.346	29678.96529
585.549	30060.81614
585.753	30169.04844
585.956	30528.4854
586.159	29923.99879
586.363	30199.68082
586.566	30064.90032
586.769	30046.52155
586.973	30148.627
587.176	30103.70025
587.379	30399.81895
587.582	30730.68577
587.786	30156.79556
587.989	30614.26582
588.192	30403.90353
588.395	30567.29054
588.599	30843.02492
588.802	30769.49338
589.005	30267.07298
589.208	30679.62386
589.411	30595.88411
589.615	31092.22866
589.818	30724.5583
590.021	31145.34044
590.224	31192.32478
590.427	31635.65307
590.63	31222.96718
590.833	31022.77629
591.036	30838.93979
591.239	31398.65701
591.442	30887.96175
591.645	30988.05074
591.848	30726.60078
592.051	31298.55324
592.254	31255.65278
592.457	31065.67314
592.66	31349.62611
592.863	31715.33795
593.066	31276.08149
593.269	31780.72244
593.472	31862.45567
593.675	32745.38199
593.878	31809.32873
594.081	31972.80029
594.284	31880.84606
594.486	32034.10528
594.689	32232.33704
594.892	32027.9747
595.095	32099.49922
595.298	32034.10528
595.5	31958.49604
595.703	32757.64781
595.906	32077.01982
596.109	31983.01766
596.311	32019.80062
596.514	32054.54066
596.717	32277.29953
596.92	32540.96436
597.122	32420.36889
597.325	32348.83288
597.528	32021.84414
597.73	32712.67356
597.933	32295.69357
598.136	32463.2918
598.338	32295.69357
598.541	32808.75638
598.743	32753.5592
598.946	32250.73066
599.148	32767.8694
599.351	32344.74519
599.554	32477.59966
599.756	32455.11593
599.959	32594.11067
600.161	32694.27534
600.363	32996.84957
600.566	32923.24528
600.768	32927.33432
600.971	33207.45889
601.173	32818.97828
601.376	32749.47059
601.578	32976.40359
601.78	33113.39676
601.983	32806.712
602.185	33068.41259
602.388	33530.58848
602.59	33409.91747
602.792	33285.16689
602.995	33487.63656
603.197	33086.81505
603.399	33544.90609
603.601	33043.87633
603.804	32898.71127
604.006	33043.87633
604.208	32784.22407
604.41	33162.47192
604.613	33193.14471
604.815	33414.00784
605.017	33853.79571
605.219	33661.4981
605.421	33518.31637
605.623	33745.36899
605.826	33444.68599
606.028	33154.29261
606.23	33276.98691
606.432	33338.33793
606.634	33661.4981
606.836	33424.23381
607.038	33321.9774
607.24	33503.99904
607.442	33395.60127
607.644	33133.84455
607.846	33904.94369
608.048	33949.9557
608.25	33593.99621
608.452	33671.72596
608.654	34457.48599
608.856	33430.36944
609.058	34101.37228
609.26	33964.27806
609.462	33896.75987
609.664	33923.35749
609.866	33733.09486
610.067	33870.16283
610.269	33630.81499
610.471	33397.64643
610.673	33649.22477
610.875	33900.85177
611.077	34195.50611
611.278	33720.82084
611.48	33827.1996
611.682	33904.94369
611.884	34459.53296
612.085	33847.65809
612.287	33706.50131
612.489	33927.44948
612.69	34005.20003
612.892	33978.60058
613.094	33931.54149
613.295	33416.05303
613.497	33692.18194
613.699	33941.77157
613.9	34203.69203
614.102	34031.80007
614.304	33931.54149
614.505	33751.5061
614.707	34263.04176
614.908	33884.48424
615.11	33516.27102
615.311	33952.00174
615.513	33679.90831
615.714	33976.5545
615.916	33956.09383
616.117	33894.71392
616.319	33892.66798
616.52	33675.81713
616.722	33735.14054
616.923	34146.39183
617.124	33655.36142
617.326	33702.41004
617.527	33974.50842
617.729	34310.11451
617.93	34127.97453
618.131	33839.47466
618.333	33712.63823
618.534	34416.54742
618.735	34035.89244
618.937	33892.66798
619.138	34095.23338
619.339	33888.5761
619.54	33994.9694
619.742	34330.58156
619.943	33808.78725
620.144	34117.74282
620.345	34017.47689
620.546	33859.93335
620.748	34136.15996
620.949	34029.75389
621.15	34416.54742
621.351	34064.53941
621.552	34013.38459
621.753	33859.93335
621.954	34355.14253
622.155	34224.15709
622.356	34254.8554
622.558	33990.87718
622.759	34439.06344
622.96	34531.17947
623.161	34404.26616
623.362	34031.80007
623.563	34136.15996
623.764	34408.35989
623.965	34287.6012
624.166	34518.89686
624.366	34629.44569
624.567	34070.67814
624.768	33974.50842
624.969	33960.18594
625.17	34656.0611
625.371	34748.19692
625.572	34557.7923
625.773	34490.238
625.973	34488.19097
626.174	33794.46671
626.375	34228.25015
626.576	34271.22818
626.777	34518.89686
626.977	33982.69277
627.178	34252.80882
627.379	34359.23608
627.58	33853.79571
627.78	34089.09452
627.981	34297.83447
628.182	34303.97447
628.382	34586.45304
628.583	34971.40696
628.784	34052.26205
628.984	34379.70406
629.185	34754.33962
629.386	34287.6012
629.586	34621.25647
629.787	34447.2512
629.987	34316.25459
630.188	34127.97453
630.388	34643.77698
630.589	34015.43074
630.79	34514.80268
630.99	34404.26616
631.191	34498.42616
631.391	34463.62691
631.591	34838.29373
631.792	34651.96638
631.992	34740.00672
632.193	34809.62565
632.393	34789.14897
632.594	34762.52994
632.794	34662.20322
632.994	34668.34538
633.195	34735.91165
633.395	34858.77146
633.595	34615.1146
633.796	35129.1199
633.996	34539.36796
634.196	34535.2737
634.397	34656.0611
634.597	34543.46223
634.797	34973.455
634.997	34570.07537
635.198	34783.00605
635.398	34381.75088
635.598	34574.16977
635.798	34914.06355
635.998	34529.13235
636.199	35086.10454
636.399	35190.57404
636.599	35038.99485
636.799	35389.30564
636.999	34578.26417
637.199	34543.46223
637.399	34826.0073
637.599	35030.80211
637.799	34973.455
637.999	35368.8157
638.199	35024.65761
638.399	35032.85029
638.599	34979.59916
638.799	34975.50305
638.999	35293.00723
639.199	35235.64315
639.399	35434.38529
639.599	35049.23588
639.799	35006.22434
639.999	35045.13945
640.199	35313.49534
640.399	34897.68037
640.599	34598.73647
640.799	36004.24846
640.998	35918.12681
641.198	35698.76626
641.398	35508.15731
641.598	35442.58185
641.798	35487.66441
641.997	35030.80211
642.197	35325.78844
642.397	35709.01536
642.597	35655.72153
642.796	35520.45329
642.996	34985.74337
643.196	35832.01513
643.395	35452.82767
643.595	35922.22762
643.795	35481.51665
643.994	35784.86289
644.194	35399.5508
644.394	35637.27451
644.593	35278.66585
644.793	35809.46369
644.992	35760.26287
645.192	35532.74946
645.392	35610.62957
645.591	35856.61746
645.791	35458.97523
645.99	35567.58963
646.19	35458.97523
646.389	35288.90967
646.589	35499.96009
646.788	35485.61515
646.987	35399.5508
647.187	35698.76626
647.386	35422.0906
647.586	35713.11504
647.785	35530.70009
647.984	35415.94332
648.184	35739.76346
648.383	36108.8384
648.582	36203.18753
648.782	36365.25163
648.981	36010.40039
649.18	36188.82924
649.38	36090.38025
649.579	36170.36902
649.778	36194.98276
649.977	36459.63578
650.177	36061.66852
650.376	35864.81842
650.575	34750.24449
650.774	35391.35466
650.973	35856.61746
651.173	35817.66414
651.372	35415.94332
651.571	35471.27047
651.77	35733.61374
651.969	35692.61687
652.168	35739.76346
652.367	35709.01536
652.566	35528.65072
652.765	35916.07642
652.964	36145.75613
653.163	35965.28742
653.362	36291.39492
653.561	35807.41359
653.76	36426.80501
653.959	36135.50102
654.158	35807.41359
654.357	35895.5728
654.556	35729.51396
654.755	35823.81453
654.954	35608.57999
655.153	36102.68563
655.352	36020.65373
655.551	36065.77012
655.749	36617.65663
655.948	36445.27212
656.147	36658.70726
656.346	36506.83284
656.545	36053.46537
656.743	36588.92273
656.942	35799.21326
657.141	36281.13767
657.34	36295.49786
657.538	36482.20787
657.737	36504.78073
657.936	36644.33924
658.135	36059.61772
658.333	35545.04582
658.532	35776.66279
658.731	36114.99122
658.929	35907.8749
659.128	35969.38849
659.326	36000.1472
659.525	36246.26416
659.724	36055.51615
659.922	36231.90499
660.121	35801.26334
660.319	35672.11924
660.518	35655.72153
660.716	35985.79297
660.915	35752.06304
661.113	36250.36684
661.312	36186.77808
661.51	36525.30217
661.709	36098.58382
661.907	36277.03481
662.105	36229.8537
662.304	36734.65786
662.502	36408.3384
662.701	36806.5114
662.899	36080.12593
663.097	36268.82917
663.296	36373.45842
663.494	36845.52105
663.692	36178.5735
663.891	36369.35501
664.089	36133.45001
664.287	36307.80683
664.485	35965.28742
664.684	36833.20195
664.882	35926.32844
665.08	35737.71355
665.278	35987.84356
665.476	36158.06247
665.675	36110.88934
665.873	36063.71932
666.071	36225.75115
666.269	36408.3384
666.467	36094.48202
666.665	36371.40671
666.863	36006.2991
667.061	36400.13119
667.259	36601.2371
667.457	36320.11603
667.655	36158.06247
667.853	36533.51093
668.051	36160.11354
668.249	36112.94028
668.447	36223.69988
668.645	36127.29703
668.843	36277.03481
669.041	36092.43113
669.239	35782.81286
669.437	35731.56385
669.635	35422.0906
669.833	35981.69182
670.031	35479.4674
670.229	35489.71368
670.426	35977.59068
670.624	35879.1703
670.822	35858.66769
671.02	36082.17678
671.218	35741.81338
671.415	35604.48086
671.613	35680.31823
671.811	36012.45105
672.009	36032.95792
672.206	36145.75613
672.404	35842.266
672.602	36082.17678
672.799	35670.06951
672.997	36100.63472
673.195	36026.8058
673.392	36014.50171
673.59	35946.83291
673.788	35914.02603
673.985	35629.07597
674.183	35752.06304
674.38	35618.82791
674.578	35506.10799
674.775	35829.96497
674.973	35663.92034
675.17	35520.45329
675.368	35293.00723
675.565	35791.01301
675.763	36205.23874
675.96	35594.23313
676.158	35590.13407
676.355	34967.31088
676.553	35647.5228
676.75	35266.37343
676.947	35649.57247
677.145	35639.32415
677.342	35264.32471
677.539	35610.62957
677.737	35957.08536
677.934	35473.31969
678.131	35616.77832
678.329	35553.24349
678.526	35624.97673
678.723	35885.3212
678.92	35752.06304
679.118	35719.26459
679.315	35252.0325
679.512	35436.43442
679.709	35715.16488
679.906	35514.30528
680.104	35793.06307
680.301	35506.10799
680.498	35387.25662
680.695	35100.44276
680.892	35301.20242
681.089	35036.94666
681.286	35366.76673
681.483	34586.45304
681.68	35079.95966
681.877	35223.35134
682.075	35256.12988
682.272	34955.02277
682.469	34881.29747
682.665	34776.86317
682.862	34776.86317
683.059	34574.16977
683.256	34664.25061
683.453	34238.48286
683.65	34602.83098
683.847	34482.0499
684.044	34864.91486
684.241	34840.34148
684.438	34705.19913
684.635	34467.72088
684.831	34840.34148
685.028	34770.72034
685.225	34797.33959
685.422	34293.74115
685.619	34823.95958
685.815	34346.95548
686.012	34811.67334
686.209	34127.97453
686.405	34774.81556
686.602	33673.77155
686.799	33997.01552
686.996	34060.44694
687.192	34013.38459
687.389	34285.55456
687.586	33859.93335
687.782	34123.88183
687.979	34130.02088
688.175	33945.86363
688.372	33786.28363
688.568	33800.60406
688.765	33755.59752
688.962	33833.33711
689.158	34170.9487
689.355	34461.57993
689.551	33861.97924
689.748	33387.42065
689.944	33563.31467
690.14	33375.14981
690.337	34156.62379
690.533	33487.63656
690.73	33111.352
690.926	34052.26205
691.123	33814.92467
691.319	33814.92467
691.515	34258.94857
691.712	33585.8144
691.908	34132.06723
692.104	33643.08815
692.301	34228.25015
692.497	33485.59127
692.693	33720.82084
692.889	33759.68896
693.086	33675.81713
693.282	33405.82711
693.478	33589.9053
693.674	33671.72596
693.87	33254.49219
694.067	33461.04796
694.263	33608.3145
694.459	33501.95372
694.655	33082.72559
694.851	33305.61706
695.047	32868.04427
695.243	33156.33744
695.439	32774.00239
695.635	33041.83165
695.831	33375.14981
696.027	33162.47192
696.224	33092.94925
696.42	33064.32319
696.615	33285.16689
696.811	33681.95391
697.007	33481.50068
697.203	33170.65127
697.399	32861.91094
697.595	32516.43583
697.791	32994.80496
697.987	32947.77966
698.183	33373.10468
698.379	32964.13613
698.575	32571.6255
698.77	33029.56368
698.966	32810.80075
699.162	33084.77032
699.358	33123.62062
699.554	32865.99983
699.749	32972.31442
699.945	33119.53107
700.141	32896.66678
700.337	32704.49655
700.532	32726.98342
700.728	32816.93389
700.924	32982.53735
701.119	32553.22876
701.315	32113.80442
701.511	32066.80199
701.706	32702.4523
701.902	32444.89615
702.097	32573.6696
702.293	32512.34777
702.489	32260.94942
702.684	32381.53472
702.88	32164.89522
703.075	32187.37558
703.271	32064.75843
703.466	32258.90566
703.662	32117.89163
703.857	32573.6696
704.053	32213.94359
704.248	32682.00997
704.443	32966.1807
704.639	32473.51169
704.834	32189.41926
705.03	32657.47949
705.225	32538.92031
705.42	32275.25576
705.616	32277.29953
705.811	31921.71413
706.006	32269.12445
706.202	32312.04397
706.397	32195.55031
706.592	32761.73644
706.787	32252.77441
706.983	32113.80442
707.178	32436.72036
707.373	31703.07856
707.568	31846.10879
707.763	31872.67253
707.959	32397.88585
708.154	31987.10463
708.349	32128.10971
708.544	31991.1916
708.739	31831.80536
708.934	31809.32873
709.129	31711.25148
709.324	31692.86245
709.519	31980.97419
709.714	31339.41146
709.909	31997.32207
710.104	31551.88463
710.299	31145.34044
710.494	31549.84153
710.689	31933.9747
710.884	31635.65307
711.079	32134.24058
711.274	32113.80442
711.469	32579.80189
711.664	32121.97886
711.859	31899.2366
712.054	31417.04384
712.249	31192.32478
712.443	31415.00085
712.638	31431.34479
712.833	31229.0957
713.028	31079.97224
713.223	30873.66359
713.417	31235.22423
713.612	30706.17595
713.807	31269.95286
714.002	31719.42442
714.196	31754.15976
714.391	31621.35093
714.586	31682.64639
714.78	31253.60992
714.975	31651.99846
715.17	31519.19529
715.364	32038.19234
715.559	31619.30778
715.754	31212.75301
715.948	31222.96718
716.143	30988.05074
716.337	30879.79136
716.532	31341.45439
716.726	31251.56706
716.921	31468.11905
717.115	31057.50226
717.31	31120.82718
717.504	31754.15976
717.699	31511.02302
717.893	30789.91863
718.088	31202.53888
718.282	30552.99386
718.476	30597.92651
718.671	30532.57013
718.865	30749.06826
719.059	29966.8813
719.254	30150.66914
719.448	30138.41633
719.642	30465.17272
719.837	29899.49472
720.031	29921.95678
720.225	29832.10937
720.419	30197.63865
720.614	29936.25088
720.808	30134.33207
721.002	29317.56923
721.196	29672.83966
721.39	29779.01873
721.585	30438.6226
721.779	30659.19933
721.973	30199.68082
722.167	29999.55401
722.361	30164.96414
722.555	30162.922
722.749	29685.09094
722.943	30195.59649
723.137	29699.38415
723.331	29225.69414
723.525	29883.15877
723.719	29654.46281
723.913	29717.76121
724.107	29662.63029
724.301	29531.95271
724.495	29566.66351
724.689	29885.20076
724.883	29540.11993
725.077	29525.8273
725.271	29678.96529
725.465	29435.98914
725.659	29397.19602
725.853	29644.25349
726.046	29276.73559
726.24	28978.66267
726.434	28827.59307
726.628	29170.5701
726.822	29331.8611
727.015	29652.42094
727.209	29415.57166
727.403	29640.16976
727.596	29223.65249
727.79	29854.57102
727.984	29466.61556
728.177	29527.8691
728.371	29374.73702
728.565	29195.06958
728.758	29327.7777
728.952	29090.94782
729.146	29454.36496
729.339	29985.25966
729.533	29828.02545
729.726	29546.24535
729.92	29482.94974
730.113	29768.80907
730.307	29587.08178
730.5	29125.65477
730.694	29891.32674
730.887	29740.22219
731.081	29623.83492
731.274	29454.36496
731.468	28815.34443
731.661	29029.70099
731.854	28960.28904
732.048	29254.27727
732.241	28790.84727
732.435	28872.50506
732.628	29023.57635
732.821	28792.88869
733.014	28952.12301
733.208	29380.86219
733.401	29425.78039
733.594	29141.98756
733.788	29097.07255
733.981	29397.19602
734.174	29172.61171
734.367	28633.66072
734.56	28909.25161
734.754	29127.69636
734.947	28948.04
735.14	29160.36202
735.333	28780.64016
735.526	28541.80132
735.719	28451.98532
735.912	28441.77909
736.105	28652.03285
736.298	28829.63451
736.491	28643.86745
736.684	28260.11263
736.877	28672.44643
737.07	28784.723
737.263	28841.88319
737.456	28331.55348
737.649	28972.53812
737.842	28796.97154
738.035	28684.69463
738.228	28552.00782
738.421	28554.04912
738.614	28817.38587
738.807	29066.44897
739	28747.97759
739.192	28545.88392
739.385	28472.39787
739.578	28180.50869
739.771	28362.17139
739.964	28686.736
740.156	28629.57803
740.349	28380.54225
740.542	28717.35668
740.735	28015.18279
740.927	27717.20682
741.12	27986.60869
741.313	27684.55344
741.505	28309.1005
741.698	28251.94805
741.891	27974.36272
742.083	27974.36272
742.276	28104.98854
742.468	27839.65971
742.661	27380.4838
742.854	27492.72107
743.046	27449.86639
743.239	27776.39185
743.431	27958.03481
743.624	27709.04345
743.816	27441.70365
744.009	27925.37923
744.201	28317.2652
744.393	27739.6562
744.586	27672.3085
744.778	27892.72393
744.971	27978.4447
745.163	28037.63403
745.355	27627.41075
745.548	27429.45959
745.74	27686.59426
745.932	27864.15079
746.125	27735.57448
746.317	27894.76488
746.509	27700.88009
746.702	27998.85471
746.894	27655.98198
747.086	27525.37262
747.278	27972.32172
747.471	27855.98708
747.663	27809.04609
747.855	27472.31401
748.047	27525.37262
748.239	28090.70112
748.431	27931.50213
748.623	27837.61879
748.815	27904.96963
749.008	28039.67505
749.2	27709.04345
749.392	27909.05154
749.584	27621.28838
749.776	27323.3463
749.968	27513.12825
750.16	27545.78
750.352	27374.36187
750.544	27017.27016
750.736	27123.37313
750.928	27284.575
751.12	27088.68522
751.311	27345.79305
751.503	27217.23651
751.695	27168.26396
751.887	27084.60431
752.079	27129.49457
752.271	26949.93753
752.463	26709.18511
752.654	26344.0162
752.846	26868.32428
753.038	26933.6147
753.23	26725.50666
753.421	26333.81668
753.613	26433.77369
753.805	26409.29407
753.997	26729.58707
754.188	26749.98917
754.38	26713.26549
754.572	26962.17971
754.763	26696.94401
754.955	26672.46197
755.146	26503.13389
755.338	26456.21355
755.53	26388.89455
755.721	26415.41395
755.913	26739.7881
756.104	26872.40489
756.296	26246.10257
756.487	26154.31206
756.679	26178.78919
756.87	25717.84643
757.062	25797.38294
757.253	25870.8038
757.445	25854.48784
757.636	25621.99864
757.827	26156.35181
758.019	25950.34578
758.21	25858.56682
758.401	25874.88281
758.593	26162.47107
758.784	25830.01413
758.975	25697.45292
759.167	25925.87103
759.358	26060.48537
759.549	25464.98086
759.74	25524.11603
759.932	25589.37059
760.123	25540.42948
760.314	25356.91072
760.505	25379.3399
760.696	25146.90466
760.888	25002.15677
761.079	24684.16017
761.27	24967.50052
761.461	25150.98222
761.652	25475.17646
761.843	25155.0598
762.034	25222.34109
762.225	25436.43347
762.416	25193.79722
762.607	25161.17618
762.798	25446.62892
762.989	25191.75839
763.18	25522.07686
763.371	25067.39385
763.562	24940.99913
763.753	24967.50052
763.944	24855.38195
764.135	24775.88401
764.326	24943.03769
764.517	24765.69223
764.708	24620.97552
764.899	24419.20844
765.089	24492.5754
765.28	24343.80702
765.471	24508.87962
765.662	24382.52622
765.853	24351.95835
766.043	23681.65853
766.234	24188.9398
766.425	23828.32394
766.615	24343.80702
766.806	24559.83136
766.997	24272.48467
767.187	24142.07517
767.378	24323.42887
767.569	23789.61909
767.759	24060.57492
767.95	24150.22543
768.141	24225.61748
768.331	23775.35967
768.522	24362.14757
768.712	24156.33816
768.903	24384.5641
769.093	23706.1017
769.284	23873.14141
769.474	23834.43533
769.665	23685.73236
769.855	23276.37357
770.046	23357.82796
770.236	22659.52783
770.426	23247.86574
770.617	23015.75432
770.807	23235.64829
770.998	23555.37574
771.188	23398.55705
771.378	23329.31834
771.569	23260.0833
771.759	22983.18071
771.949	22745.01258
772.139	23396.52057
772.33	22576.0844
772.52	23099.22807
772.71	23125.69652
772.9	22826.43232
773.09	22962.82265
773.281	23103.30011
773.471	23233.61206
773.661	22820.32565
773.851	22797.93478
774.041	22916.00037
774.231	22826.43232
774.421	22653.42201
774.611	22388.86729
774.802	22189.4742
774.992	22244.4055
775.182	22032.8332
775.372	22169.12996
775.562	22598.47108
775.752	22806.07687
775.942	22494.68192
776.131	23146.05724
776.321	22313.58208
776.511	22128.44259
776.701	22097.92805
776.891	22240.33642
777.081	22124.37394
777.271	22240.33642
777.461	22572.01414
777.651	22390.90209
777.84	22181.33646
778.03	21811.13304
778.22	21855.8762
778.41	21977.91242
778.599	22154.88921
778.789	22270.85487
778.979	22205.74986
779.169	22268.82028
779.358	21951.47007
779.548	22032.8332
779.738	21845.70713
779.927	21782.6611
780.117	21752.15629
780.307	21310.95234
780.496	21544.74689
780.686	21624.04567
780.875	21457.32188
781.065	21760.29082
781.254	21491.88438
781.444	20898.38451
781.633	21373.97001
781.823	21491.88438
782.012	21567.11261
782.202	21162.57118
782.391	20955.2804
782.581	20768.34891
782.77	20295.0821
782.96	20815.0785
783.149	20492.07976
783.338	20955.2804
783.528	20967.47279
783.717	20902.44839
783.906	21168.66861
784.096	20855.71471
784.285	21020.30822
784.474	20908.54425
784.663	20729.74786
784.853	20546.92118
785.042	20461.61363
785.231	20711.46367
785.42	20565.20232
785.61	20713.49523
785.799	20567.23358
785.988	20490.04866
786.177	20191.52185
786.366	20254.46893
786.555	20656.61314
786.744	20293.0514
786.933	19994.58451
787.122	20252.43832
787.312	20256.49955
787.501	20039.24724
787.69	19911.35485
787.879	20000.67476
788.068	20299.14351
788.257	20018.94575
788.445	19901.20538
788.634	20370.22088
788.823	20071.73051
789.012	20163.09546
789.201	20035.18691
789.39	19637.35587
789.579	19570.38995
789.768	19805.80545
789.957	19608.94553
790.145	19868.72776
790.334	19884.96644
790.523	19864.66814
790.712	19493.2833
790.9	19566.33155
791.089	19399.95171
791.278	19049.02193
791.467	19085.52915
791.655	19272.14224
791.844	19053.07822
792.033	19071.33174
792.221	18787.42513
792.41	19296.48564
792.599	18860.42218
792.787	19288.37111
792.976	19051.05008
793.164	19221.42873
793.353	19061.19086
793.541	19497.3414
793.73	19028.74071
793.918	19468.93508
794.107	19083.50093
794.295	18935.45232
794.484	19038.88127
794.672	19089.58559
794.861	19174.77456
795.049	19377.63459
795.238	18894.89481
795.426	19219.40024
795.614	18542.1114
795.803	18471.1635
795.991	18418.46238
796.179	18643.47376
796.368	18647.52846
796.556	18710.37827
796.744	18475.21754
796.932	18692.13116
797.121	18290.77413
797.309	18538.05711
797.497	18821.89532
797.685	18448.86655
797.874	18513.73167
798.062	18698.21349
798.25	18452.92051
798.438	19079.44452
798.626	18898.95048
798.814	19146.37744
799.002	18722.54318
799.19	18602.92765
799.378	18191.4713
799.566	18349.5494
799.755	18185.39183
799.943	18284.69411
800.131	18357.65659
800.318	17899.69308
800.506	17838.91518
800.694	18094.20362
800.882	17435.83146
801.07	17883.48533
801.258	17674.83019
801.446	18029.36313
801.634	17610.01253
801.822	17427.73059
802.01	17893.61515
802.197	18142.83641
802.385	17903.74505
802.573	18331.30846
802.761	18465.08247
802.949	18351.57619
803.136	17940.21342
803.324	18266.45425
803.512	18124.59887
803.699	18272.53417
803.887	18011.1274
804.075	18082.04575
804.262	17818.65657
804.45	18169.18005
804.638	17836.8893
804.825	18031.38934
805.013	18003.02273
805.201	18252.2679
805.388	17691.03513
805.576	17749.77984
805.763	17932.10924
805.951	17996.94426
806.138	17820.68241
806.326	18051.65163
806.513	17715.34295
806.701	17614.06353
806.888	17717.36862
807.075	17686.98388
807.263	17757.88278
807.45	18015.17976
807.638	17778.14037
807.825	18390.08592
808.012	17824.73411
808.2	18029.36313
808.387	18298.88088
808.574	18148.91566
808.761	17844.99283
808.949	18157.02137
809.136	17936.16132
809.323	18309.0144
809.51	18077.99315
809.698	18009.10123
809.885	18035.44177
810.072	18274.56082
810.259	18440.75869
810.446	18080.01945
810.633	17962.5002
810.82	18392.11278
811.008	17942.23947
811.195	18019.23213
811.382	17818.65657
811.569	17976.68293
811.756	17836.8893
811.943	18298.88088
812.13	17946.29159
812.317	18096.22994
812.504	18428.59701
812.691	18438.73173
812.878	18023.28452
813.064	18242.1349
813.251	18282.66744
813.438	18432.65089
813.625	17980.73516
813.812	17881.45938
813.999	17709.26595
814.186	18090.15098
814.372	17810.55322
814.559	17919.95307
814.746	18122.57249
814.933	17924.00512
815.12	17644.44649
815.306	17921.97909
815.493	17555.32523
815.68	17859.17413
815.866	17575.57951
816.053	17938.18737
816.24	17707.24029
816.426	17962.5002
816.613	17834.86343
816.799	17879.43343
816.986	17855.12231
817.173	17950.34372
817.359	17680.90702
817.546	17686.98388
817.732	17419.62976
817.919	17840.94106
818.105	17595.83411
818.292	17405.45343
818.478	17454.05861
818.665	17417.60456
818.851	17389.2521
819.037	17281.9232
819.224	17502.6656
819.41	17618.11455
819.597	17800.42411
819.783	17591.78317
819.969	17441.90715
820.156	17601.91056
820.342	17310.27341
820.528	17215.10001
820.714	17336.59913
820.901	17263.69837
821.087	17300.14827
821.273	17332.54898
821.459	17012.6245
821.646	17302.17329
821.832	17352.79982
822.018	17306.22334
822.204	16156.42378
822.39	16783.85954
822.576	16862.81012
822.762	17330.52392
822.948	17095.63607
823.134	16933.66649
823.32	16747.42207
823.507	17123.98255
823.693	16955.93629
823.879	17160.42884
824.065	17030.84616
824.25	17020.72299
824.436	16953.91175
824.622	17063.24076
824.808	16812.20034
824.994	16953.91175
825.18	16783.85954
825.366	16931.64198
825.552	16459.99709
825.738	17152.32959
825.923	17014.64912
826.109	17304.19831
826.295	16990.35388
826.481	17024.77225
826.667	16913.42149
826.852	17144.23038
827.038	16727.17937
827.224	17012.6245
827.409	16761.59211
827.595	17032.8708
827.781	16565.24613
827.966	16804.10292
828.152	16294.03856
828.338	16407.37467
828.523	16073.45388
828.709	16455.94917
828.894	16051.1941
829.08	16136.18697
829.266	15830.62898
829.451	16273.80058
829.637	15517.00372
829.822	15860.98108
830.008	15591.86726
830.193	16154.40009
830.378	16180.70817
830.564	16338.56275
830.749	16322.37203
830.935	16314.27672
831.12	15869.07502
831.305	16362.84906
831.491	16322.37203
831.676	16160.47116
831.861	16085.59565
832.047	16014.76939
832.232	15921.6861
832.417	15812.41785
832.602	15990.48652
832.788	15911.56852
832.973	15620.19426
833.158	15589.8439
833.343	15142.69541
833.528	15646.49805
833.714	15674.82536
833.899	16004.6515
834.084	15628.28772
834.269	15668.75521
834.454	15444.16436
834.639	15330.85992
834.824	15472.49069
835.009	15488.67721
835.194	15282.3012
835.379	15292.41759
835.564	15136.6256
835.749	15476.53732
835.934	15359.18591
836.119	15340.97634
836.304	15047.60158
836.489	15624.24099
836.674	15164.95139
836.859	15278.25465
837.044	15296.46414
837.228	15304.55726
837.413	15253.97534
837.598	15508.91042
837.783	15108.2998
837.968	15110.32307
838.152	14485.10779
838.337	14968.69358
838.522	14505.34266
838.707	15063.78778
838.891	14598.42145
839.076	15003.08943
839.261	14897.87823
839.445	14938.34421
839.63	14936.32091
839.815	14598.42145
839.999	14598.42145
840.184	14685.42772
840.368	14677.33419
840.553	14798.73565
840.737	14582.23402
840.922	14622.70246
841.106	14586.28088
841.291	14663.17048
841.475	14406.19043
841.66	14333.34156
841.844	14220.01664
842.029	14193.70823
842.213	13938.69976
842.397	14149.18551
842.582	14041.92193
842.766	14242.27735
842.951	14161.32817
843.135	14139.06657
843.319	14114.78089
843.504	14149.18551
843.688	13934.6517
843.872	13999.41946
844.056	14037.87412
844.241	14258.46682
844.425	14019.65887
844.609	13821.30155
844.793	13827.3741
844.977	14060.13695
845.161	13635.06334
845.346	13843.56745
845.53	13537.88455
845.714	13550.03234
845.898	13394.12553
846.082	13539.90919
846.266	13633.03886
846.45	13699.84487
846.634	13444.74709
846.818	13414.37445
847.002	13406.27493
847.186	13588.4995
847.37	13473.09411
847.554	13643.16122
847.738	13475.11887
847.922	13477.14362
848.106	13428.54846
848.29	13266.548
848.473	13262.49764
848.657	13122.74958
848.841	13151.10601
849.025	12918.15
849.209	12800.63331
849.392	13068.05957
849.576	12922.20198
849.76	13230.09419
849.944	12810.76479
850.127	12999.18563
850.311	12589.86594
850.495	13059.95705
850.678	12820.89612
850.862	13057.9314
851.046	12711.47025
851.229	12816.8436
851.413	12561.48844
851.596	12853.31547
851.78	13009.31451
851.964	13173.38542
852.147	13023.49473
852.331	13096.41778
852.514	12770.23805
852.698	12721.60298
852.881	12407.41732
853.065	12480.40305
853.248	12196.51972
853.431	12360.783
853.615	11969.31016
853.798	12251.27935
853.982	12007.8615
854.165	11989.6007
854.348	12143.78318
854.532	12385.11439
854.715	12198.54795
854.898	12460.1301
855.081	12241.13907
855.265	12727.68254
855.448	12243.16714
855.631	12113.35594
855.814	11932.78516
855.997	12044.38119
856.181	11851.60899
856.364	11989.6007
856.547	12117.41301
856.73	12066.69753
856.913	11610.02885
857.096	12184.3502
857.279	11610.02885
857.462	11800.86709
857.645	11614.09006
857.828	11510.51761
858.011	11652.66975
858.194	11577.53784
858.377	11116.30376
858.56	11486.14407
858.743	11575.50707
858.926	11695.30668
859.109	11616.12065
859.292	11644.54799
859.475	11146.798
859.658	11693.27644
859.841	11337.8417
860.023	11343.93735
860.206	11026.83996
860.389	11156.96222
860.572	11122.4028
860.755	11323.61816
860.937	11410.98363
861.12	11236.23408
861.303	11291.10535
861.486	11500.36213
861.668	11085.8071
861.851	11161.02783
862.034	11104.10538
862.216	10894.63832
862.399	10357.17991
862.581	10436.63217
862.764	10357.17991
862.947	10754.24823
863.129	10750.17811
863.312	10902.77519
863.494	10843.77876
863.677	11179.32256
863.859	10957.69426
864.042	10729.82683
864.224	10355.14241
864.406	10613.80144
864.589	10644.33828
864.771	10701.33302
864.954	10308.27625
865.136	10473.29577
865.318	10298.08702
865.501	10463.11186
865.683	10575.11744
865.865	10860.0546
866.048	10599.54996
866.23	10532.35619
866.412	10389.77811
866.594	10393.85265
866.777	10351.06737
866.959	10302.16275
867.141	10285.85951
867.323	10304.2006
867.505	10179.86728
867.687	10461.07504
867.869	10126.85724
868.052	10556.79187
868.234	10063.64062
868.416	10330.69138
868.598	9837.17127
868.78	10012.64956
868.962	10153.36343
869.144	9808.59472
869.326	9714.67952
869.508	10055.48265
869.69	9810.636
869.872	9949.4082
870.054	9808.59472
870.236	10304.2006
870.417	9882.07139
870.599	9796.34672
870.781	9602.34707
870.963	9833.08909
871.145	9612.56105
871.327	9528.79478
871.508	9661.58274
871.69	9751.43277
871.872	9579.87492
872.054	9773.89066
872.235	9346.86811
872.417	9561.48721
872.599	9381.62809
872.78	9677.92132
872.962	9592.13269
873.144	9802.47079
873.325	9310.05823
873.507	9614.6038
873.689	9410.2504
873.87	9665.66748
874.052	9489.96723
874.233	9677.92132
874.415	9207.78026
874.596	9461.35376
874.778	9009.23973
874.959	9142.30022
875.141	9064.5199
875.322	9473.61706
875.503	9594.1756
875.685	9802.47079
875.866	9367.31573
876.048	9755.51616
876.229	9475.66089
876.41	9661.58274
876.592	9318.23867
876.773	9739.18223
876.954	9080.89678
877.136	9420.47188
877.317	9236.42232
877.498	9459.30982
877.679	9269.15207
877.86	9336.64368
878.042	9434.78128
878.223	9690.17461
878.404	9400.02852
878.585	9620.73195
878.766	9534.92492
878.947	9442.95771
879.128	9254.83333
879.309	9260.97003
879.49	9418.42762
879.672	9686.09024
879.853	9301.87753
880.034	9565.57348
880.215	9344.82326
880.396	9698.34316
880.576	9436.82541
880.757	9459.30982
880.938	9369.3604
881.119	9800.42945
881.3	9545.1415
881.481	10086.07387
881.662	9841.2534
881.843	10190.06044
882.023	9957.56916
882.204	10047.32445
882.385	9682.00581
882.566	9620.73195
882.747	9800.42945
882.927	9788.18109
883.108	9395.93965
883.289	9724.88925
883.469	9555.35769
883.65	9604.38989
883.831	9187.31962
884.011	9461.35376
884.192	9457.26586
884.373	9628.90261
884.553	9426.60458
884.734	9563.53035
884.914	9506.31637
885.095	9696.30105
885.275	9359.13688
885.456	9632.98784
885.636	9710.59552
885.817	9947.36793
885.997	9690.17461
886.178	9824.92454
886.358	9432.73713
886.538	9604.38989
886.719	9279.37923
886.899	9430.69296
887.08	9520.62104
887.26	9831.04797
887.44	9528.79478
887.621	9796.34672
887.801	9301.87753
887.981	9610.51828
888.161	9256.87891
888.342	9534.92492
888.522	9426.60458
888.702	9588.04683
888.882	9385.71719
889.062	9424.56036
889.242	9263.01557
889.423	9673.83677
889.603	9299.83232
889.783	9594.1756
889.963	9297.78708
890.143	9557.40088
890.323	9465.44159
890.503	9541.05491
890.683	9447.04584
890.863	9438.86953
891.043	9252.78773
891.223	9643.20066
891.403	9076.80266
891.583	9412.29473
891.763	9234.37657
891.943	9205.73427
892.122	9084.99082
892.302	9350.95777
892.482	9158.67187
892.662	9287.56067
892.842	9060.42551
893.022	9406.1617
893.201	8867.90986
893.381	9301.87753
893.561	9273.24298
893.741	9424.56036
893.92	9375.49432
894.1	9487.92351
894.28	8933.46465
894.459	8912.98074
894.639	8802.33669
894.819	8810.53435
894.998	8761.34403
895.178	9023.57285
895.357	8925.2713
895.537	8964.18719
895.716	9058.37829
895.896	8900.68954
896.075	8806.43555
896.255	8787.99009
896.434	8664.98246
896.614	8912.98074
896.793	8498.816
896.973	8482.39778
897.152	8435.18857
897.331	8820.78101
897.511	8710.09294
897.69	8876.10521
897.87	8656.77959
898.049	8744.94493
898.228	8728.54465
898.407	8412.60667
898.587	8114.71539
898.766	8342.79329
898.945	8262.68552
899.124	8246.24947
899.304	8213.37358
899.483	8316.09401
899.662	8131.16161
899.841	8198.98879
900.02	7812.28449
900.199	7917.25967
900.378	7824.63731
900.557	7876.09935
900.737	7719.61435
900.916	7818.46099
901.095	7548.5773
901.274	7631.02307
901.453	7610.41483
901.632	7795.81289
901.811	7420.71846
901.989	7775.22152
902.168	7478.47144
902.347	7569.19195
902.526	7602.17093
902.705	7494.96917
902.884	7331.99322
903.063	7826.69604
903.242	7503.21752
903.42	7589.80445
903.599	7369.13893
903.778	7261.80974
903.957	7173.01178
904.135	7354.69422
904.314	7094.50501
904.493	6953.93858
904.672	7090.37219
904.85	7084.17278
905.029	7030.43614
905.207	7009.76416
905.386	6726.33021
905.565	6778.08359
905.743	6479.78702
905.922	6724.25978
906.1	6450.7604
906.279	6500.51753
906.457	6436.24538
906.636	6800.85056
906.814	6614.49396
906.993	6378.1739
907.171	6444.53982
907.35	6220.45907
907.528	5937.89424
907.707	6064.68669
907.885	5892.1443
908.063	6189.31516
908.242	5808.93332
908.42	6189.31516
908.598	5919.17974
908.777	6338.75785
908.955	6085.46398
909.133	5983.63278
909.311	5865.10487
909.49	6018.96838
909.668	5659.05841
909.846	5925.41812
910.024	5606.98989
910.202	5758.98861
910.38	5725.68458
910.559	6006.49776
910.737	5975.31753
910.915	6197.62072
911.093	5746.50031
911.271	6247.44619
911.449	6029.3599
911.627	6112.47094
911.805	5821.41737
911.983	5929.57692
912.161	5688.21033
912.339	6220.45907
912.517	5854.70403
912.695	6336.68309
912.872	6160.24275
913.05	6490.15256
913.228	6174.77953
913.406	6353.28053
913.584	6141.55091
913.762	6174.77953
913.939	6100.00668
914.117	6185.16224
914.295	5900.46332
914.473	6299.33337
914.65	6158.16597
914.828	6359.50419
915.006	5971.15976
915.184	6234.99108
915.361	5748.58175
915.539	6025.20336
915.716	5740.25584
915.894	5898.3836
916.072	5756.90729
916.249	5852.62379
916.427	5873.42512
916.604	6064.68669
916.782	5634.06736
916.959	6039.75084
917.137	5513.22944
917.314	5892.1443
917.492	5371.45655
917.669	5579.90844
917.847	5490.30296
918.024	5588.24162
918.201	5438.18675
918.379	5617.40478
918.556	5271.31623
918.733	5411.08051
918.911	5095.94116
919.088	5581.99177
919.265	4970.57298
919.442	5381.88473
919.62	5091.76356
919.797	5529.90145
919.974	5129.3586
920.151	5408.99525
920.328	5079.23021
920.506	5254.62093
920.683	5037.44636
920.86	5049.98249
921.037	4669.35265
921.214	4830.4806
921.391	4853.48789
921.568	5054.16102
921.745	4972.66313
921.922	5091.76356
922.099	4937.12744
922.276	5052.07176
922.453	4719.58873
922.63	4995.65327
922.807	4577.21959
922.984	4794.91845
923.161	4771.90415
923.338	5016.55097
923.514	4533.23178
923.691	4673.53948
923.868	4537.42151
924.045	4627.47935
924.222	4604.44522
924.399	4725.86733
924.575	4254.41753
924.752	4543.70595
924.929	4411.69102
925.105	4652.60441
925.282	4443.13106
925.459	4640.04228
925.635	4778.18105
925.812	4694.47231
925.989	4436.84344
926.165	4392.82463
926.342	4388.63187
926.518	4371.85992
926.695	4197.76951
926.871	4338.31185
927.048	3964.72253
927.224	4048.73287
927.401	3865.96885
927.577	4094.9245
927.754	3947.91655
927.93	4048.73287
928.107	3849.1553
928.283	3931.10926
928.459	3788.19556
928.636	4006.7318
928.812	3889.08539
928.988	3889.08539
929.165	3712.49849
929.341	3640.98389
929.517	3565.23872
929.693	3601.0103
929.87	3384.19563
930.046	3628.36138
930.222	3426.31054
930.398	3588.38565
930.574	3337.86111
930.751	3651.50212
930.927	3388.40744
931.103	3554.71665
931.279	3422.09937
931.455	3636.77646
931.631	3466.31311
931.807	3436.83816
931.983	3219.88121
932.159	3539.98497
932.335	2966.89485
932.511	3015.40133
932.687	2947.91189
932.863	3158.76387
933.039	2871.96817
933.215	3080.76681
933.391	2954.23968
933.566	3047.03165
933.742	2762.23926
933.918	2933.14654
934.094	2715.80442
934.27	2861.41896
934.445	2652.47402
934.621	2779.12305
934.797	2396.93148
934.973	2481.42678
935.148	2109.53087
935.324	2498.32374
935.5	2172.94201
935.675	2280.7236
935.851	2084.16447
936.027	2202.53136
936.202	1991.14556
936.378	2126.4412
936.553	1841.02169
936.729	2041.8848
936.904	1781.8109
937.08	1754.31906
937.255	1616.85154
937.431	1754.31906
937.606	1358.81767
937.782	1508.9859
937.957	1191.73692
938.133	1308.05749
938.308	999.30532
938.483	1191.73692
938.659	997.19094
938.834	1071.19793
939.009	946.44774
939.185	1062.73964
939.36	914.73532
939.535	963.3617
939.71	798.47207
939.886	997.19094
940.061	745.63433
940.236	832.29139
940.411	639.97888
940.586	743.52096
940.761	599.83753
940.937	728.7276
941.112	697.02933
941.287	790.01762
941.462	595.61239
941.637	756.20138
941.812	582.93728
941.987	595.61239
942.162	574.48747
942.337	587.16227
942.512	614.62592
942.687	534.35382
942.862	494.22521
943.037	483.66592
943.212	485.77775
943.386	447.76714
943.561	458.32515
943.736	517.45693
943.911	447.76714
944.086	468.88354
944.26	511.12083
944.435	397.09419
944.61	342.2092
944.785	557.58849
944.959	443.54405
945.134	409.76156
945.309	413.98415
945.483	443.54405
945.658	481.5541
945.833	439.32102
946.007	454.1019
946.182	371.76124
946.357	371.76124
946.531	468.88354
946.706	335.87706
946.88	470.99526
947.055	477.33052
947.229	519.56899
947.404	375.98323
947.578	525.90526
947.752	418.2068
947.927	519.56899
948.101	521.68107
948.276	576.59991
948.45	409.76156
948.624	525.90526
948.799	367.53931
948.973	553.36388
949.147	409.76156
949.321	559.70082
949.496	422.42952
949.67	468.88354
949.844	477.33052
950.018	532.24166
950.193	367.53931
950.367	553.36388
950.541	380.20529
950.715	443.54405
950.889	451.9903
951.063	511.12083
951.237	407.65029
951.411	547.02707
951.585	513.23285
951.759	561.81316
951.933	580.82481
952.107	540.69038
952.281	485.77775
952.455	544.91483
952.629	506.89684
952.803	557.58849
952.977	591.3873
953.151	570.26265
953.325	494.22521
953.499	663.22063
953.672	470.99526
953.846	540.69038
954.02	604.06272
954.194	544.91483
954.368	468.88354
954.541	589.27478
954.715	578.71235
954.889	665.33358
955.062	509.00883
955.236	694.9162
955.41	542.8026
955.583	591.3873
955.757	435.09805
955.93	595.61239
956.104	549.13933
956.278	566.03788
956.451	532.24166
956.625	500.56096
956.798	439.32102
956.972	496.33711
957.145	454.1019
957.319	589.27478
957.492	382.31634
957.665	557.58849
957.839	439.32102
958.012	523.79316
958.185	432.98659
958.359	502.6729
958.532	511.12083
958.705	502.6729
958.879	483.66592
959.052	629.41493
959.225	454.1019
959.398	544.91483
959.572	534.35382
959.745	555.47618
959.918	388.64961
960.091	445.65559
960.264	470.99526
960.438	591.3873
960.611	378.09425
960.784	601.95012
960.957	394.98302
961.13	587.16227
961.303	456.21352
961.476	553.36388
961.649	451.9903
961.822	451.9903
961.995	405.53904
962.168	506.89684
962.341	437.20952
962.514	443.54405
962.686	390.76073
962.859	386.5385
963.032	359.09566
963.205	490.00145
963.378	437.20952
963.551	511.12083
963.723	443.54405
963.896	519.56899
964.069	445.65559
964.242	428.76371
964.414	378.09425
964.587	397.09419
964.76	350.65229
964.932	439.32102
965.105	380.20529
965.278	409.76156
965.45	392.87187
965.623	394.98302
965.795	416.09547
965.968	485.77775
966.14	424.5409
966.313	449.87871
966.485	312.66058
966.658	451.9903
966.83	405.53904
967.003	494.22521
967.175	361.20655
967.348	388.64961
967.52	409.76156
967.692	536.46599
967.865	445.65559
968.037	428.76371
968.209	394.98302
968.382	361.20655
968.554	333.76638
968.726	378.09425
968.898	426.6523
969.071	473.107
969.243	278.89506
969.415	384.42741
969.587	323.21326
969.759	392.87187
969.932	240.91455
970.104	352.76311
970.276	386.5385
970.448	318.99213
970.62	308.43963
970.792	359.09566
970.964	283.11549
971.136	316.8816
971.308	295.77723
971.48	308.43963
971.652	283.11549
971.824	380.20529
971.996	335.87706
972.168	268.3443
972.339	238.8047
972.511	371.76124
972.683	333.76638
972.855	388.64961
973.027	359.09566
973.199	285.22573
973.37	238.8047
973.542	299.99796
973.714	274.6747
973.886	226.14603
974.057	192.39306
974.229	262.01407
974.401	194.50247
974.572	183.95562
974.744	266.2342
974.915	283.11549
975.087	310.5501
975.259	285.22573
975.43	257.79401
975.602	251.46407
975.773	217.70731
975.945	234.58507
976.116	270.45441
976.288	194.50247
976.459	240.91455
976.63	323.21326
976.802	211.37848
976.973	232.47528
977.145	181.84631
977.316	253.57403
977.487	164.97259
977.659	228.25576
977.83	131.22915
978.001	198.72135
978.172	268.3443
978.344	200.83082
978.515	257.79401
978.686	240.91455
978.857	198.72135
979.028	217.70731
979.2	213.48807
979.371	175.51851
979.542	74.29967
979.713	228.25576
979.884	215.59768
980.055	283.11549
980.226	236.69488
980.397	150.20917
980.568	105.92518
980.739	181.84631
980.91	207.15936
981.081	196.6119
981.252	245.1343
981.423	156.53622
981.594	202.94032
981.765	249.35413
981.936	183.95562
982.106	192.39306
982.277	183.95562
982.448	162.86346
982.619	131.22915
982.79	209.26891
982.96	194.50247
983.131	122.79415
983.302	177.62776
983.472	181.84631
983.643	135.44678
983.814	156.53622
983.984	158.64528
984.155	131.22915
984.326	101.70815
984.496	175.51851
984.667	156.53622
984.837	74.29967
985.008	167.08173
985.178	116.46812
985.349	154.42718
985.519	226.14603
985.69	105.92518
985.86	97.49122
986.031	127.01161
986.201	181.84631
986.371	38.46358
986.542	164.97259
986.712	93.27437
986.882	129.12037
987.053	51.11085
987.223	150.20917
987.393	152.31817
987.563	129.12037
987.734	122.79415
987.904	80.62436
988.074	118.57677
988.244	124.90287
988.414	108.03372
988.585	135.44678
988.755	65.86705
988.925	97.49122
989.095	42.67924
989.265	127.01161
989.435	186.06495
989.605	150.20917
989.775	36.35578
989.945	82.73264
990.115	114.35949
990.285	89.05761
990.455	105.92518
990.625	112.25088
990.795	84.84094
990.965	72.19148
991.134	55.32679
991.304	30.03253
991.474	32.14026
991.644	135.44678
991.814	63.75895
991.984	46.895
992.153	30.03253
992.323	21.60186
992.493	21.60186
992.662	55.32679
992.832	137.55563
993.002	93.27437
993.171	122.79415
993.341	6.8491
993.511	97.49122
993.68	116.46812
993.85	55.32679
994.019	42.67924
994.189	34.24801
994.358	127.01161
994.528	63.75895
994.697	57.4348
994.867	91.16598
995.036	55.32679
995.206	76.40788
995.375	82.73264
995.544	101.70815
995.714	99.59967
995.883	49.00291
996.052	118.57677
996.222	97.49122
996.391	65.86705
996.56	13.17157
996.73	84.84094
996.899	89.05761
997.068	139.6645
997.237	91.16598
997.406	38.46358
997.576	67.97517
997.745	99.59967
997.914	46.895
998.083	148.10019
998.252	82.73264
998.421	67.97517
998.59	63.75895
998.759	38.46358
998.928	114.35949
999.097	6.8491
999.266	89.05761
999.435	53.21881
999.604	32.14026
999.773	34.24801
999.942	63.75895
1000.111	49.00291
1000.28	-7.90249
1000.448	55.32679
1000.617	118.57677
1000.786	97.49122
1000.955	8.95656
1001.124	82.73264
1001.292	51.11085
1001.461	53.21881
1001.63	72.19148
1001.798	84.84094
1001.967	17.38667
1002.136	4.74166
1002.304	67.97517
1002.473	55.32679
1002.642	65.86705
1002.81	38.46358
1002.979	80.62436
1003.147	114.35949
1003.316	65.86705
1003.484	97.49122
1003.653	59.54283
1003.821	53.21881
1003.99	15.2791
1004.158	89.05761
1004.327	108.03372
1004.495	89.05761
1004.663	8.95656
1004.832	51.11085
1005	-16.33143
1005.168	114.35949
1005.337	13.17157
1005.505	99.59967
1005.673	63.75895
1005.842	72.19148
1006.01	-12.11701
1006.178	89.05761
1006.346	30.03253
1006.514	108.03372
1006.683	23.70949
1006.851	65.86705
1007.019	-3.68787
1007.187	-5.79519
1007.355	99.59967
1007.523	-3.68787
1007.691	27.92483
1007.859	46.895
1008.027	61.65088
1008.195	116.46812
1008.363	108.03372
1008.531	99.59967
1008.699	103.81665
1008.867	-14.22423
1009.035	21.60186
1009.203	63.75895
1009.37	46.895
1009.538	6.8491
1009.706	63.75895
1009.874	80.62436
1010.042	72.19148
1010.209	30.03253
1010.377	49.00291
1010.545	8.95656
1010.713	4.74166
1010.88	34.24801
1011.048	-22.65289
1011.216	118.57677
1011.383	17.38667
1011.551	21.60186
1011.718	25.81715
1011.886	17.38667
1012.054	55.32679
1012.221	-20.54576
1012.389	21.60186
1012.556	78.51611
1012.724	32.14026
1012.891	-1.58052
1013.058	-39.50901
1013.226	97.49122
1013.393	61.65088
1013.561	55.32679
1013.728	25.81715
1013.895	0.52684
1014.063	46.895
1014.23	25.81715
1014.397	-10.00976
1014.565	-7.90249
1014.732	23.70949
1014.899	61.65088
1015.066	46.895
1015.233	-10.00976
1015.401	30.03253
1015.568	108.03372
1015.735	-35.29512
1015.902	4.74166
1016.069	19.49425
1016.236	27.92483
1016.403	-12.11701
1016.57	-1.58052
1016.737	-41.61591
1016.904	32.14026
1017.071	42.67924
1017.238	82.73264
1017.405	-62.68356
1017.572	4.74166
1017.739	-7.90249
1017.906	49.00291
1018.073	-20.54576
1018.24	8.95656
1018.407	105.92518
1018.573	74.29967
1018.74	30.03253
1018.907	89.05761
1019.074	-20.54576
1019.241	0.52684
1019.407	51.11085
1019.574	93.27437
1019.741	70.08331
1019.907	-47.93647
1020.074	-1.58052
1020.241	0.52684
1020.407	17.38667
1020.574	13.17157
1020.74	49.00291
1020.907	59.54283
1021.073	46.895
1021.24	55.32679
1021.406	-20.54576
1021.573	65.86705
1021.739	-1.58052
1021.906	65.86705
1022.072	-3.68787
1022.239	-37.40208
1022.405	8.95656
1022.571	34.24801
1022.738	23.70949
1022.904	21.60186
1023.07	82.73264
1023.237	63.75895
1023.403	25.81715
1023.569	23.70949
1023.735	-16.33143
1023.902	99.59967
1024.068	6.8491
1024.234	17.38667
1024.4	-18.43861
1024.566	-12.11701
1024.732	-3.68787
1024.898	-20.54576
1025.065	8.95656
1025.231	25.81715
1025.397	38.46358
1025.563	-3.68787
1025.729	-24.75999
1025.895	61.65088
1026.061	-43.72279
1026.227	38.46358
1026.392	122.79415
1026.558	30.03253
1026.724	36.35578
1026.89	-87.96139
1027.056	11.06405
1027.222	51.11085
1027.388	-3.68787
1027.553	-18.43861
1027.719	57.4348
1027.885	57.4348
1028.051	6.8491
1028.216	61.65088
1028.382	110.14229
1028.548	17.38667
1028.713	72.19148
1028.879	-3.68787
1029.045	13.17157
1029.21	42.67924
1029.376	36.35578
1029.541	-1.58052
1029.707	63.75895
1029.873	15.2791
1030.038	15.2791
1030.204	13.17157
1030.369	32.14026
1030.534	4.74166
1030.7	30.03253
1030.865	-41.61591
1031.031	36.35578
1031.196	44.78711
1031.361	15.2791
1031.527	-28.97412
1031.692	21.60186
1031.857	-28.97412
1032.023	32.14026
1032.188	-20.54576
1032.353	-20.54576
1032.518	34.24801
1032.684	-37.40208
1032.849	6.8491
1033.014	42.67924
1033.179	-10.00976
1033.344	-50.04327
1033.509	76.40788
1033.674	-18.43861
1033.839	55.32679
1034.004	-31.08114
1034.17	21.60186
1034.335	-26.86706
1034.5	-3.68787
1034.664	80.62436
1034.829	25.81715
1034.994	103.81665
1035.159	-1.58052
1035.324	13.17157
1035.489	30.03253
1035.654	-60.57691
1035.819	0.52684
1035.984	38.46358
1036.148	53.21881
1036.313	-20.54576
1036.478	-5.79519
1036.643	70.08331
1036.807	25.81715
1036.972	19.49425
1037.137	-26.86706
1037.301	15.2791
1037.466	38.46358
1037.631	63.75895
1037.795	-71.10991
1037.96	-47.93647
1038.124	19.49425
1038.289	27.92483
1038.454	-31.08114
1038.618	30.03253
1038.783	-35.29512
1038.947	21.60186
1039.111	-33.18815
1039.276	-16.33143
1039.44	21.60186
1039.605	38.46358
1039.769	74.29967
1039.933	-16.33143
1040.098	32.14026
1040.262	-3.68787
1040.426	51.11085
1040.591	44.78711
1040.755	-24.75999
1040.919	13.17157
1041.083	-26.86706
1041.248	-39.50901
1041.412	38.46358
1041.576	38.46358
1041.74	0.52684
1041.904	34.24801
1042.068	30.03253
1042.232	-45.82964
1042.397	-16.33143
1042.561	139.6645
1042.725	-3.68787
1042.889	63.75895
1043.053	21.60186
1043.217	11.06405
1043.381	74.29967
1043.544	25.81715
1043.708	-71.10991
1043.872	-37.40208
1044.036	-43.72279
1044.2	74.29967
1044.364	44.78711
1044.528	30.03253
1044.691	-18.43861
1044.855	4.74166
1045.019	80.62436
1045.183	-10.00976
1045.346	72.19148
1045.51	-10.00976
1045.674	6.8491
1045.837	72.19148
1046.001	-26.86706
1046.165	38.46358
1046.328	-20.54576
1046.492	-12.11701
1046.655	63.75895
1046.819	72.19148
1046.983	0.52684
1047.146	30.03253
1047.31	44.78711
1047.473	21.60186
1047.636	103.81665
1047.8	65.86705
1047.963	-3.68787
1048.127	32.14026
1048.29	15.2791
