Data from mixed_try1_USB4F045381__23__00045.txt Node

Date: Thu Apr 03 19:34:07 EDT 2025
User: mmckonesweet
Spectrometer: USB4F04538
Trigger mode: 4
Integration Time (sec): 2.700000E-3
Scans to average: 1
Electric dark correction enabled: true
Nonlinearity correction enabled: true
Boxcar width: 0
XAxis mode: Wavelengths
Number of Pixels in Spectrum: 3648
>>>>>Begin Spectral Data<<<<<
345.52	-12.46822
345.736	-12.46822
345.952	-12.46822
346.168	21.25059
346.384	46.54368
346.6	-54.60793
346.816	-8.2537
347.032	6.49786
347.248	4.39042
347.464	42.32793
347.68	40.22009
347.896	0.17561
348.112	-41.96706
348.328	-6.14641
348.544	-10.36097
348.76	38.11228
348.975	-10.36097
349.191	-54.60793
349.407	12.82031
349.623	29.68125
349.839	-1.93175
350.055	17.0354
350.27	12.82031
350.486	-77.78048
350.702	23.35822
350.918	80.27299
351.133	27.57355
351.349	-25.11117
351.565	54.97546
351.781	-4.03909
351.996	-4.03909
352.212	67.62381
352.428	6.49786
352.644	46.54368
352.859	71.84011
353.075	-96.73754
353.291	33.89672
353.506	23.35822
353.722	-35.64629
353.938	-1.93175
354.153	-44.07393
354.369	21.25059
354.584	48.65159
354.8	4.39042
355.016	86.59788
355.231	31.78897
355.447	-44.07393
355.662	-12.46822
355.878	40.22009
356.093	6.49786
356.309	67.62381
356.524	19.14299
356.74	-96.73754
356.955	6.49786
357.171	21.25059
357.386	0.17561
357.602	17.0354
357.817	-8.2537
358.033	17.0354
358.248	25.46587
358.464	46.54368
358.679	-44.07393
358.895	-35.64629
359.11	-37.75323
359.325	63.4076
359.541	124.55141
359.756	-4.03909
359.972	33.89672
360.187	-27.21824
360.402	-4.03909
360.618	33.89672
360.833	40.22009
361.048	-10.36097
361.264	6.49786
361.479	-12.46822
361.694	29.68125
361.909	23.35822
362.125	8.60532
362.34	4.39042
362.555	65.5157
362.77	31.78897
362.986	50.75953
363.201	57.08346
363.416	42.32793
363.631	88.70622
363.847	-12.46822
364.062	-4.03909
364.277	-52.50118
364.492	38.11228
364.707	-77.78048
364.922	-18.7898
365.138	19.14299
365.353	71.84011
365.568	59.19149
365.783	-4.03909
365.998	10.7128
366.213	29.68125
366.428	54.97546
366.643	6.49786
366.858	-14.57544
367.073	-39.86016
367.288	54.97546
367.503	-25.11117
367.718	38.11228
367.933	61.29953
368.148	17.0354
368.363	42.32793
368.578	-23.00407
368.793	25.46587
369.008	4.39042
369.223	59.19149
369.438	-1.93175
369.653	10.7128
369.868	38.11228
370.083	50.75953
370.298	-44.07393
370.513	-12.46822
370.728	21.25059
370.943	21.25059
371.157	-46.18078
371.372	67.62381
371.587	-4.03909
371.802	105.57375
372.017	42.32793
372.232	84.48956
372.446	71.84011
372.661	-60.92802
372.876	42.32793
373.091	33.89672
373.306	12.82031
373.52	-14.57544
373.735	-10.36097
373.95	73.9483
374.165	-46.18078
374.379	88.70622
374.594	-8.2537
374.809	6.49786
375.023	6.49786
375.238	-10.36097
375.453	42.32793
375.667	25.46587
375.882	46.54368
376.097	21.25059
376.311	50.75953
376.526	78.16474
376.741	-18.7898
376.955	52.86748
377.17	-1.93175
377.384	6.49786
377.599	36.00449
377.813	46.54368
378.028	-23.00407
378.242	12.82031
378.457	-54.60793
378.672	54.97546
378.886	-8.2537
379.101	-14.57544
379.315	31.78897
379.53	38.11228
379.744	-67.24789
379.958	23.35822
380.173	-37.75323
380.387	23.35822
380.602	17.0354
380.816	14.92785
381.031	90.81458
381.245	48.65159
381.459	0.17561
381.674	-20.89695
381.888	63.4076
382.103	97.13981
382.317	-29.32529
382.531	29.68125
382.746	42.32793
382.96	0.17561
383.174	54.97546
383.388	46.54368
383.603	14.92785
383.817	50.75953
384.031	-6.14641
384.246	-44.07393
384.46	63.4076
384.674	0.17561
384.888	14.92785
385.103	63.4076
385.317	61.29953
385.531	31.78897
385.745	25.46587
385.959	-12.46822
386.174	-4.03909
386.388	-4.03909
386.602	38.11228
386.816	105.57375
387.03	25.46587
387.244	21.25059
387.458	71.84011
387.672	17.0354
387.887	44.4358
388.101	46.54368
388.315	-92.52504
388.529	57.08346
388.743	52.86748
388.957	4.39042
389.171	14.92785
389.385	31.78897
389.599	-88.31244
389.813	63.4076
390.027	-88.31244
390.241	12.82031
390.455	65.5157
390.669	6.49786
390.883	48.65159
391.097	-10.36097
391.311	19.14299
391.525	23.35822
391.738	23.35822
391.952	46.54368
392.166	29.68125
392.38	29.68125
392.594	40.22009
392.808	38.11228
393.022	25.46587
393.236	0.17561
393.449	10.7128
393.663	-20.89695
393.877	54.97546
394.091	97.13981
394.305	48.65159
394.518	19.14299
394.732	-35.64629
394.946	126.66015
395.16	-1.93175
395.373	14.92785
395.587	71.84011
395.801	-8.2537
396.015	-12.46822
396.228	27.57355
396.442	67.62381
396.656	42.32793
396.869	-37.75323
397.083	14.92785
397.297	29.68125
397.51	42.32793
397.724	-6.14641
397.938	-4.03909
398.151	29.68125
398.365	63.4076
398.578	-18.7898
398.792	46.54368
399.005	19.14299
399.219	4.39042
399.433	-16.68263
399.646	12.82031
399.86	-8.2537
400.073	-27.21824
400.287	31.78897
400.5	4.39042
400.714	0.17561
400.927	-4.03909
401.141	38.11228
401.354	-12.46822
401.567	52.86748
401.781	21.25059
401.994	10.7128
402.208	23.35822
402.421	-25.11117
402.635	-16.68263
402.848	4.39042
403.061	31.78897
403.275	54.97546
403.488	29.68125
403.701	21.25059
403.915	6.49786
404.128	-12.46822
404.341	-46.18078
404.555	-29.32529
404.768	4.39042
404.981	-39.86016
405.195	19.14299
405.408	57.08346
405.621	-41.96706
405.834	33.89672
406.048	21.25059
406.261	0.17561
406.474	-16.68263
406.687	21.25059
406.9	6.49786
407.114	29.68125
407.327	97.13981
407.54	-4.03909
407.753	-29.32529
407.966	-69.35446
408.179	14.92785
408.392	-12.46822
408.605	29.68125
408.819	-46.18078
409.032	21.25059
409.245	21.25059
409.458	-8.2537
409.671	21.25059
409.884	38.11228
410.097	12.82031
410.31	-1.93175
410.523	23.35822
410.736	63.4076
410.949	-37.75323
411.162	-33.53931
411.375	-12.46822
411.588	105.57375
411.801	-16.68263
412.014	-1.93175
412.227	-46.18078
412.44	38.11228
412.653	-20.89695
412.865	17.0354
413.078	124.55141
413.291	82.38126
413.504	0.17561
413.717	38.11228
413.93	36.00449
414.143	23.35822
414.356	27.57355
414.568	8.60532
414.781	2.283
414.994	12.82031
415.207	-12.46822
415.42	-12.46822
415.632	54.97546
415.845	31.78897
416.058	63.4076
416.271	-4.03909
416.483	40.22009
416.696	71.84011
416.909	38.11228
417.121	4.39042
417.334	88.70622
417.547	38.11228
417.759	27.57355
417.972	6.49786
418.185	92.92297
418.397	71.84011
418.61	54.97546
418.823	38.11228
419.035	69.73195
419.248	82.38126
419.46	54.97546
419.673	29.68125
419.885	57.08346
420.098	23.35822
420.311	-88.31244
420.523	31.78897
420.736	33.89672
420.948	4.39042
421.161	80.27299
421.373	-4.03909
421.586	29.68125
421.798	25.46587
422.01	63.4076
422.223	-105.16222
422.435	57.08346
422.648	67.62381
422.86	52.86748
423.073	82.38126
423.285	54.97546
423.497	42.32793
423.71	54.97546
423.922	54.97546
424.134	25.46587
424.347	44.4358
424.559	97.13981
424.771	-20.89695
424.984	50.75953
425.196	124.55141
425.408	-20.89695
425.621	21.25059
425.833	69.73195
426.045	42.32793
426.257	25.46587
426.47	48.65159
426.682	-37.75323
426.894	48.65159
427.106	38.11228
427.318	38.11228
427.531	114.00805
427.743	76.05651
427.955	-37.75323
428.167	-14.57544
428.379	14.92785
428.591	-1.93175
428.804	97.13981
429.016	48.65159
429.228	-12.46822
429.44	14.92785
429.652	4.39042
429.864	84.48956
430.076	46.54368
430.288	14.92785
430.5	57.08346
430.712	67.62381
430.924	29.68125
431.136	25.46587
431.348	-29.32529
431.56	76.05651
431.772	48.65159
431.984	38.11228
432.196	6.49786
432.408	21.25059
432.62	8.60532
432.832	8.60532
433.044	86.59788
433.256	31.78897
433.468	99.24826
433.679	71.84011
433.891	21.25059
434.103	-4.03909
434.315	17.0354
434.527	12.82031
434.739	97.13981
434.95	21.25059
435.162	4.39042
435.374	48.65159
435.586	29.68125
435.798	90.81458
436.009	84.48956
436.221	-12.46822
436.433	12.82031
436.645	46.54368
436.856	114.00805
437.068	17.0354
437.28	42.32793
437.491	25.46587
437.703	92.92297
437.915	8.60532
438.126	-10.36097
438.338	-12.46822
438.55	76.05651
438.761	21.25059
438.973	21.25059
439.184	71.84011
439.396	82.38126
439.608	73.9483
439.819	29.68125
440.031	12.82031
440.242	33.89672
440.454	46.54368
440.665	109.79086
440.877	76.05651
441.088	59.19149
441.3	10.7128
441.511	-4.03909
441.723	80.27299
441.934	40.22009
442.146	95.03138
442.357	71.84011
442.569	-10.36097
442.78	36.00449
442.991	76.05651
443.203	36.00449
443.414	84.48956
443.626	25.46587
443.837	88.70622
444.048	63.4076
444.26	48.65159
444.471	12.82031
444.682	29.68125
444.894	97.13981
445.105	84.48956
445.316	65.5157
445.528	57.08346
445.739	23.35822
445.95	71.84011
446.161	42.32793
446.373	107.68229
446.584	31.78897
446.795	65.5157
447.006	14.92785
447.217	40.22009
447.429	0.17561
447.64	54.97546
447.851	59.19149
448.062	46.54368
448.273	6.49786
448.484	73.9483
448.695	19.14299
448.907	44.4358
449.118	42.32793
449.329	21.25059
449.54	65.5157
449.751	120.334
449.962	36.00449
450.173	80.27299
450.384	46.54368
450.595	19.14299
450.806	-46.18078
451.017	107.68229
451.228	54.97546
451.439	105.57375
451.65	4.39042
451.861	-1.93175
452.072	-4.03909
452.283	2.283
452.494	63.4076
452.705	33.89672
452.915	80.27299
453.126	6.49786
453.337	40.22009
453.548	73.9483
453.759	29.68125
453.97	80.27299
454.181	73.9483
454.391	71.84011
454.602	54.97546
454.813	86.59788
455.024	116.11668
455.235	21.25059
455.445	12.82031
455.656	99.24826
455.867	54.97546
456.078	65.5157
456.288	46.54368
456.499	50.75953
456.71	109.79086
456.921	132.98649
457.131	71.84011
457.342	128.76891
457.553	73.9483
457.763	92.92297
457.974	59.19149
458.184	31.78897
458.395	126.66015
458.606	130.87769
458.816	135.09531
459.027	88.70622
459.237	71.84011
459.448	80.27299
459.659	31.78897
459.869	88.70622
460.08	139.31302
460.29	44.4358
460.501	101.35674
460.711	175.16697
460.922	65.5157
461.132	118.22533
461.343	160.40285
461.553	149.85767
461.764	149.85767
461.974	97.13981
462.184	166.73021
462.395	101.35674
462.605	114.00805
462.816	114.00805
463.026	88.70622
463.236	160.40285
463.447	132.98649
463.657	141.42191
463.867	164.62107
464.078	99.24826
464.288	166.73021
464.498	158.29377
464.709	135.09531
464.919	170.94855
465.129	255.33235
465.339	147.7487
465.55	97.13981
465.76	116.11668
465.97	99.24826
466.18	189.93211
466.391	185.7134
466.601	198.36978
466.811	132.98649
467.021	107.68229
467.231	149.85767
467.441	249.00247
467.651	316.52984
467.862	166.73021
468.072	227.90414
468.282	194.1509
468.492	223.68471
468.702	301.75662
468.912	215.24608
469.122	251.11241
469.332	215.24608
469.542	295.42551
469.752	240.56291
469.962	320.75093
470.172	350.30049
470.382	297.53586
470.592	206.80777
470.802	308.08789
471.012	276.43317
471.222	303.86702
471.432	343.96815
471.642	259.55236
471.852	333.4146
472.062	259.55236
472.272	358.74385
472.482	430.52323
472.691	295.42551
472.901	329.19331
473.111	413.63227
473.321	261.6624
473.531	343.96815
473.741	367.18749
473.95	426.3004
474.16	483.31395
474.37	413.63227
474.58	483.31395
474.79	591.03522
474.999	521.32906
475.209	502.32091
475.419	487.53762
475.628	531.88963
475.838	624.83732
476.048	546.67503
476.258	569.91058
476.467	709.35615
476.677	572.02299
476.886	800.23344
477.096	738.94201
477.306	791.77895
477.515	808.68807
477.725	876.33038
477.935	698.79028
478.144	840.39428
478.354	817.14286
478.563	910.15478
478.773	933.41021
478.982	1039.12736
479.192	893.24232
479.401	958.78079
479.611	969.35217
479.82	960.89506
480.03	1089.87697
480.239	1123.71168
480.449	1081.41849
480.658	1212.53298
480.868	1178.6955
481.077	1360.58019
481.287	1267.52062
481.496	1394.42075
481.705	1322.50994
481.915	1586.88925
482.124	1419.8013
482.333	1489.59798
482.543	1451.52707
482.752	1584.77425
482.961	1715.89994
483.171	1648.22336
483.38	1544.58899
483.589	1775.11423
483.799	1703.21081
484.008	1855.4714
484.217	1550.93407
484.426	1889.30397
484.636	1870.27331
484.845	1908.3342
485.054	1819.52294
485.263	1982.33628
485.472	2007.7067
485.682	2123.97514
485.891	1963.30787
486.1	2047.87459
486.309	2151.45348
486.518	2212.74635
486.727	2265.57922
486.936	2411.3673
487.146	2364.88927
487.355	2303.61536
487.564	2248.67331
487.773	2590.89195
487.982	2417.70483
488.191	2489.52333
488.4	2491.63544
488.609	2521.20389
488.818	2624.67541
489.027	2675.34466
489.236	2664.78916
489.445	2726.00656
489.654	2658.45572
489.863	2991.85208
490.072	2806.20565
490.281	2911.70034
490.49	2810.42611
490.698	3040.35442
490.907	2945.45105
491.116	3240.60175
491.325	3166.84339
491.534	3278.52668
491.743	2953.88814
491.952	3124.68676
492.16	3308.02005
492.369	3409.11448
492.578	3276.41988
492.787	3358.57228
492.996	3527.00631
493.204	3560.67921
493.413	3299.59371
493.622	3815.17404
493.831	3516.48257
494.039	3712.14798
494.248	3552.26143
494.457	3636.42584
494.665	3585.93078
494.874	3918.15276
495.083	3733.1775
495.291	3863.51695
495.5	3855.11024
495.709	3920.25386
495.917	3840.39774
496.126	3905.5457
496.335	3876.12641
496.543	4165.94193
496.752	3943.3647
496.96	4111.36909
497.169	4094.5746
497.377	4296.01943
497.586	4193.22301
497.794	4348.44675
498.003	4006.38176
498.211	4407.14927
498.42	4442.78175
498.628	4648.06818
498.837	4388.28246
499.045	4587.34238
499.254	4578.96494
499.462	4832.22367
499.671	4551.73578
499.879	4966.04424
500.087	4631.31811
500.296	4867.7789
500.504	4671.09717
500.713	4681.564
500.921	4846.86486
501.129	4790.38555
501.338	4648.06818
501.546	4995.30495
501.754	4832.22367
501.962	4991.12513
502.171	4938.86954
502.379	5245.92487
502.587	4978.5851
502.795	5124.83367
503.004	5095.59303
503.212	5285.57561
503.42	5335.64868
503.628	5414.90342
503.837	5179.12562
504.045	5325.2179
504.253	5377.36592
504.461	5462.85692
504.669	5233.40183
504.877	5419.07378
505.085	5429.49928
505.294	5442.0091
505.502	5642.05098
505.71	5658.71133
505.918	5423.24405
506.126	5600.3935
506.334	5644.13361
506.542	5779.45371
506.75	5554.55937
506.958	5750.31627
507.166	5631.63749
507.374	5910.51496
507.582	5812.74798
507.79	5877.23844
507.998	5937.5477
508.206	6137.05074
508.414	5816.90934
508.622	6278.23434
508.83	6014.4652
509.037	6178.58659
509.245	5895.95723
509.453	6336.33729
509.661	6078.88476
509.869	6319.73832
510.077	6024.85698
510.285	6305.21299
510.492	6172.35681
510.7	6344.63622
510.908	6143.28172
511.116	6236.72101
511.324	6282.38516
511.531	6303.13785
511.739	6269.93243
511.947	6411.01418
512.155	6369.53075
512.362	6692.8554
512.57	6307.28811
512.778	6435.89977
512.985	6663.86205
513.193	6518.82756
513.401	6493.95312
513.608	6533.3361
513.816	6477.36831
514.024	6725.98514
514.231	6525.04564
514.439	6771.52896
514.646	6777.73862
514.854	6870.85893
515.061	6626.57827
515.269	6903.95727
515.477	6750.82859
515.684	6887.40883
515.892	6773.59887
516.099	7176.79858
516.307	6966.00105
516.514	7170.60196
516.722	7125.15403
516.929	7044.5607
517.136	7032.1587
517.344	7052.82825
517.551	7003.21756
517.759	7240.81856
517.966	7147.87934
518.173	7160.27383
518.381	7079.6953
518.588	7366.73155
518.796	7414.18581
519.003	7426.56329
519.21	7377.04867
519.418	7544.11051
519.625	7341.96823
519.832	7640.98296
520.039	7451.3159
520.247	7486.37677
520.454	7457.50357
520.661	8079.42018
520.868	7797.52875
521.076	7939.55141
521.283	7655.40675
521.49	7704.85185
521.697	7846.93912
521.904	7818.11786
522.112	7900.45353
522.319	8007.44065
522.526	8091.75704
522.733	8116.42859
522.94	8112.31687
523.147	7863.40658
523.354	7956.01145
523.561	8202.75633
523.768	7947.78159
523.975	8397.89296
524.183	7976.58466
524.39	8284.94067
524.597	8239.74319
524.804	8326.02105
525.011	8247.96162
525.218	8171.92903
525.425	8309.58984
525.632	8399.9461
525.838	8457.42605
526.045	8613.36778
526.252	8674.89386
526.459	8994.56446
526.666	8678.995
526.873	8720.00238
527.08	8590.80402
527.287	8949.50914
527.494	8475.89856
527.701	8890.10493
527.907	8584.64987
528.114	8969.98989
528.321	8773.30098
528.528	8877.81254
528.735	8814.29151
528.941	8941.31634
529.148	8832.73488
529.355	9189.02474
529.562	8871.6661
529.768	9060.08431
529.975	9060.08431
530.182	9189.02474
530.388	8859.37273
530.595	9211.53119
530.802	9231.98984
531.008	9473.27642
531.215	9170.60884
531.422	9450.79323
531.628	9465.10094
531.835	9407.86533
532.042	9250.40117
532.248	9669.41177
532.455	9640.8177
532.661	9655.11511
532.868	9366.97495
533.074	9808.2545
533.281	9853.15926
533.487	9732.71645
533.694	9704.12907
533.9	9959.26933
534.107	9834.79
534.313	9840.91322
534.52	9712.2972
534.726	9942.94728
534.933	9706.17112
535.139	10053.1032
535.345	10087.77329
535.552	9981.71063
535.758	10081.65534
535.965	9936.82627
536.171	10002.1103
536.377	10291.63367
536.584	10179.5275
536.79	10132.63443
536.996	10248.83435
537.203	10183.60481
537.409	10110.20471
537.615	10240.68142
537.821	10102.04803
538.028	10578.8503
538.234	10454.62501
538.44	10417.95928
538.646	10354.80282
538.853	10837.33603
539.059	10674.53311
539.265	10568.66967
539.471	10468.88278
539.677	10869.88757
539.883	10757.97912
540.09	10829.19768
540.296	10580.88639
540.502	11042.76877
540.708	10918.70935
540.914	11046.83559
541.12	11006.16538
541.326	11091.56776
541.532	10920.74345
541.738	11189.14716
541.944	10941.0838
542.15	11191.17981
542.356	10969.55841
542.562	11367.98044
542.768	11197.27768
542.974	11258.25123
543.18	11284.67022
543.386	11341.56683
543.592	11264.34807
543.798	11670.60482
544.004	11611.72103
544.21	11546.73688
544.415	11518.30331
544.621	11593.44519
544.827	11784.29025
545.033	11729.48107
545.239	11307.0234
545.445	11918.24207
545.651	11542.67505
545.856	11818.7965
546.062	11632.02664
546.268	11471.587
546.474	11666.54411
546.679	11522.36536
546.885	11794.4394
547.091	11859.38895
547.297	11426.89708
547.502	11991.29154
547.708	11613.75163
547.914	12113.01785
548.119	12163.729
548.325	12007.52335
548.531	11920.27136
548.736	11950.7098
548.942	12019.69687
549.147	11908.09548
549.353	12104.90363
549.559	12358.41739
549.764	11995.34954
549.97	12143.44511
550.175	12188.06869
550.381	12548.98844
550.586	12159.67228
550.792	12390.85916
550.997	12291.50066
551.203	12210.37914
551.408	12342.19585
551.614	12581.42038
551.819	12486.14694
552.025	12897.55212
552.23	12739.50377
552.435	12788.13764
552.641	12978.58985
552.846	12753.68899
553.052	12557.09658
553.257	12771.92671
553.462	12996.82221
553.668	12828.66338
553.873	12822.58466
554.078	13006.95112
554.283	12889.44789
554.489	13207.47862
554.694	13087.97794
554.899	13008.97688
555.105	13173.04786
555.31	13154.81928
555.515	13160.89552
555.72	13320.88859
555.925	13239.88285
556.131	13203.42801
556.336	13083.92678
556.541	13136.59033
556.746	13027.20856
556.951	13306.71308
557.156	13393.78804
557.361	13274.31113
557.567	13343.16398
557.772	13806.7948
557.977	13582.08839
558.182	13725.82403
558.387	13594.23572
558.592	13559.81797
558.797	13565.89176
559.002	13539.57175
559.207	13663.06827
559.412	13873.59213
559.617	13928.24225
559.822	13877.64036
560.027	13746.06718
560.232	13687.36119
560.437	13636.7504
560.642	13610.43197
560.847	13699.50747
561.051	14197.41841
561.256	13772.38281
561.461	13912.04982
561.666	14073.96674
561.871	13978.84249
562.076	13968.72257
562.281	14248.01114
562.485	13640.79934
562.69	13855.37498
562.895	14015.27368
563.1	14150.87199
563.305	13843.23009
563.509	14098.25296
563.714	14013.24975
563.919	14264.20056
564.123	14175.15722
564.328	14395.73539
564.533	14193.37094
564.737	14005.15399
564.942	14152.89577
565.147	14369.42899
565.351	14298.60268
565.556	14252.0585
565.761	14154.91955
565.965	14707.34762
566.17	14446.32389
566.374	14292.53176
566.579	14446.32389
566.784	14751.86155
566.988	14723.53455
567.193	14642.59929
567.397	14438.22979
567.602	15081.66004
567.806	14672.95019
568.011	14768.04833
568.215	14749.8382
568.42	14824.70171
568.624	14691.16063
568.828	14729.60463
569.033	14670.9268
569.237	15194.96323
569.442	14964.30978
569.646	15016.91518
569.85	14891.4711
570.055	14950.14675
570.259	15099.8695
570.463	15352.77884
570.668	15045.24109
570.872	15140.33493
571.076	15093.79968
571.281	15350.75555
571.485	15091.77641
571.689	15275.89416
571.893	14907.65752
572.098	15298.15021
572.302	15033.10142
572.506	15391.22135
572.71	15312.31317
572.914	15874.80824
573.119	15391.22135
573.323	15391.22135
573.527	15318.38301
573.731	15460.0136
573.935	15591.53003
574.139	15334.56927
574.343	15073.56695
574.547	15585.45998
574.751	15518.68983
574.955	15880.87871
575.159	15820.17443
575.364	15692.69864
575.568	16119.66037
575.772	15978.00789
575.976	15638.06733
576.18	15524.75981
576.383	15625.92713
576.587	15733.16671
576.791	15549.0398
576.995	15652.23094
577.199	15721.02625
577.403	16034.66802
577.607	16062.9985
577.811	16311.91559
578.015	15961.81949
578.219	16180.37088
578.422	15965.86658
578.626	16030.62083
578.83	16075.14023
579.034	16340.24929
579.238	16362.51175
579.442	16413.1091
579.645	16384.77443
579.849	16411.08518
580.053	16378.70277
580.257	16067.04574
580.46	16255.24926
580.664	16534.5479
580.868	16358.46401
581.071	16589.19785
581.275	16305.84413
581.479	16700.52685
581.682	16168.22866
581.886	16354.41628
582.09	16022.52647
582.293	16704.57531
582.497	16662.06696
582.7	16684.33311
582.904	16617.53549
583.107	16767.32763
583.311	16295.72506
583.515	16789.59514
583.718	16720.76923
583.922	16979.89355
584.125	16653.97024
584.329	16915.10856
584.532	16552.76437
584.735	17158.06655
584.939	16860.4483
585.142	17056.82928
585.346	16745.06041
585.549	16799.71683
585.753	16888.79042
585.956	17273.48575
586.159	17093.27389
586.363	17257.28599
586.566	17490.17613
586.769	17401.06555
586.973	17123.64509
587.176	17660.31344
587.379	17313.98598
587.582	17360.56273
587.786	17579.29283
587.989	17603.59846
588.192	17627.90457
588.395	17447.64533
588.599	17554.98766
588.802	17473.97376
589.005	17301.83579
589.208	17860.86239
589.411	17506.37871
589.615	17372.71344
589.818	17700.82572
590.021	17873.01795
590.224	17834.52578
590.427	17937.84969
590.63	17682.59503
590.833	17798.06066
591.036	17735.26221
591.239	18339.07772
591.442	17783.88008
591.645	17777.80274
591.848	17913.53737
592.051	18116.15566
592.254	17868.96608
592.457	18118.18203
592.66	17962.16252
592.863	18241.79714
593.066	18077.65543
593.269	18191.13355
593.472	18181.00111
593.675	18527.58359
593.878	18418.12456
594.081	18630.97188
594.284	18630.97188
594.486	18626.91725
594.689	18284.35633
594.892	18606.64431
595.095	18632.9992
595.298	18387.72125
595.5	18397.85559
595.703	18858.05645
595.906	18655.30001
596.109	18472.85268
596.311	18466.77164
596.514	18349.21161
596.717	18657.32738
596.92	18622.86263
597.122	18714.09531
597.325	18379.61384
597.528	18626.91725
597.73	19020.29033
597.933	18442.44782
598.136	18856.02869
598.338	18401.90935
598.541	18851.97318
598.743	18734.37032
598.946	19000.00968
599.148	18931.05851
599.351	18770.86633
599.554	18643.13587
599.756	19050.71205
599.959	19421.93119
600.161	19133.86943
600.363	19281.94715
600.566	19018.26224
600.768	19196.74908
600.971	19513.23576
601.173	19139.95439
601.376	19537.58507
601.578	19107.50172
601.78	19314.40546
601.983	19310.34812
602.185	19620.78307
602.388	19012.17802
602.59	19302.23347
602.792	19210.94826
602.995	19574.11016
603.197	19446.27825
603.399	19744.57847
603.601	19565.99335
603.804	19428.0179
604.006	19306.29079
604.208	19186.60694
604.41	19450.33615
604.613	19760.81508
604.815	19714.13553
605.017	20034.84855
605.219	19770.96311
605.421	19529.46856
605.623	19555.84744
605.826	19521.35213
606.028	19306.29079
606.23	19243.40427
606.432	19235.29017
606.634	19643.10568
606.836	19409.75788
607.038	19937.40565
607.24	19791.25947
607.442	19673.54642
607.644	19783.14087
607.846	20042.96923
608.048	19839.97244
608.25	19888.68784
608.452	19706.01757
608.654	20089.66444
608.856	20006.4267
609.058	20181.03106
609.26	20000.33641
609.462	20144.48339
609.664	20170.8788
609.866	20134.3315
610.067	20181.03106
610.269	19913.04644
610.471	19957.70546
610.673	20258.19174
610.875	20380.03673
611.077	20577.0514
611.278	19691.81131
611.48	19848.09151
611.682	19712.10603
611.884	20256.16112
612.085	20402.37662
612.287	20363.78986
612.489	20026.72794
612.69	20111.99771
612.892	19943.49555
613.094	20168.84836
613.295	19815.61565
613.497	20310.98938
613.699	19917.10627
613.9	19953.64546
614.102	19961.76547
614.304	20252.09989
614.505	20022.66766
614.707	20522.20831
614.908	19941.46558
615.11	20252.09989
615.311	20637.99173
615.513	19996.27624
615.714	20018.60739
615.916	20079.51311
616.117	20055.15037
616.319	19959.73546
616.52	19886.65798
616.722	19967.85552
616.923	19978.00568
617.124	20213.51903
617.326	19628.90032
617.527	20122.14937
617.729	20568.9263
617.93	20179.0006
618.131	20268.34491
618.333	20345.51245
618.534	20709.09353
618.735	20743.63052
618.937	20554.70755
619.138	20637.99173
619.339	20229.76342
619.54	20579.08268
619.742	20256.16112
619.943	20304.8972
620.144	20418.62413
620.345	20871.63101
620.546	20461.27512
620.748	20983.39087
620.949	20633.92893
621.15	20656.27456
621.351	20375.97499
621.552	20308.95865
621.753	20172.90924
621.954	20556.73879
622.155	20404.40755
622.356	20672.52625
622.558	20800.5176
622.759	20572.98884
622.96	20570.95757
623.161	20702.99889
623.362	20384.09849
623.563	20607.5211
623.764	20603.45841
623.965	20424.71702
624.166	20635.96033
624.366	20948.84558
624.567	20666.43184
624.768	20680.6522
624.969	20607.5211
625.17	20816.77165
625.371	20908.20559
625.572	21087.03383
625.773	20672.52625
625.973	20867.56725
626.174	20599.39575
626.375	21044.35603
626.576	20652.21168
626.777	21089.06615
626.977	20516.11482
627.178	20822.86698
627.379	20989.48722
627.58	21058.58176
627.78	21028.09829
627.981	20965.10204
628.182	20841.15321
628.382	20666.43184
628.583	20542.52021
628.784	20786.29552
628.984	20601.42708
629.185	21074.83999
629.386	20534.3954
629.586	21249.6324
629.787	20948.84558
629.987	21085.00151
630.188	21003.71218
630.388	20694.87276
630.589	20798.48586
630.79	20826.93056
630.99	20965.10204
631.191	21202.88265
631.391	21200.8501
631.591	20869.59913
631.792	21196.78501
631.992	21379.72989
632.193	21483.41308
632.393	21361.43393
632.594	21168.32986
632.794	20961.0379
632.994	20861.47164
633.195	21048.4205
633.395	20934.6214
633.595	21367.53255
633.796	21093.13081
633.996	21367.53255
634.196	21361.43393
634.397	21615.57329
634.597	21400.0591
634.797	21562.7072
634.997	21359.40107
635.198	21391.92737
635.398	21440.71874
635.598	21906.38396
635.798	21587.1066
635.998	21481.37997
636.199	21446.81782
636.399	21556.60744
636.599	21168.32986
636.799	21383.7957
636.999	21070.77541
637.199	21412.25683
637.399	21465.11529
637.599	21739.61568
637.799	21552.54095
637.999	22122.00057
638.199	21371.59831
638.399	21818.92906
638.599	21517.97644
638.799	21796.55803
638.999	21814.86157
639.199	21995.88002
639.399	21792.49061
639.599	21902.31614
639.799	21452.91694
639.999	21713.1792
640.199	21648.10759
640.399	21578.9734
640.599	20969.16619
640.799	22014.18694
640.998	22107.76042
641.198	21810.79409
641.398	21674.54245
641.598	22001.9823
641.798	21776.22112
641.997	22254.23917
642.197	21432.58669
642.397	21924.68937
642.597	21749.78373
642.796	21690.81038
642.996	21796.55803
643.196	22083.34918
643.395	21613.53993
643.595	21981.64152
643.795	21631.84031
643.994	22018.25519
644.194	21973.50532
644.394	21816.89531
644.593	21863.67254
644.793	22235.92827
644.992	21914.51966
645.192	22095.55474
645.392	22351.90231
645.591	22036.56248
645.791	22117.93193
645.99	22058.93848
646.19	22152.51577
646.389	22296.96575
646.589	22142.34394
646.788	22272.55036
646.987	21940.96111
647.187	22286.79261
647.386	22144.3783
647.586	22429.22493
647.785	22449.57385
647.984	22191.16957
648.184	22384.45856
648.383	22343.76339
648.582	22093.52047
648.782	22459.74845
648.981	21896.21442
649.18	22077.24646
649.38	22162.68769
649.579	22551.32388
649.778	22368.18032
649.977	22512.65781
650.177	22229.8247
650.376	22288.82723
650.575	22225.75568
650.774	22423.12032
650.973	22073.17799
651.173	22431.2598
651.372	22478.06296
651.571	22671.40034
651.77	22347.83284
651.969	22459.74845
652.168	22417.01574
652.367	22406.84152
652.566	22425.15518
652.765	22272.55036
652.964	22728.39006
653.163	22730.42546
653.362	22408.87636
653.561	22512.65781
653.76	22760.95684
653.959	22412.94604
654.158	22728.39006
654.357	22514.69284
654.556	22366.14555
654.755	22620.51898
654.954	22246.10095
655.153	22543.18355
655.352	22292.89648
655.551	22699.89486
655.749	23200.69346
655.948	22819.98639
656.147	23149.79008
656.346	23047.98946
656.545	22881.05447
656.743	22693.78884
656.942	22681.57688
657.141	22708.03628
657.34	22681.57688
657.538	22777.24057
657.737	22795.56002
657.936	23229.20024
658.135	22565.56959
658.333	22811.84421
658.532	23164.04282
658.731	23204.76582
658.929	22746.70877
659.128	22722.28389
659.326	22571.67495
659.525	22822.02194
659.724	22638.83602
659.922	22594.06155
660.121	22675.47095
660.319	22722.28389
660.518	22756.88595
660.716	23092.78072
660.915	22777.24057
661.113	23090.74471
661.312	22868.84061
661.51	22909.55396
661.709	22748.7442
661.907	22974.69815
662.105	22646.97702
662.304	23157.93448
662.502	22750.77963
662.701	22838.30649
662.899	22587.95607
663.097	23206.802
663.296	23288.25202
663.494	23748.53878
663.692	23231.23647
663.891	23235.30892
664.089	22891.23279
664.287	23184.40416
664.485	22789.4535
664.684	23050.02539
664.882	23324.9062
665.08	23223.09159
665.278	23031.70213
665.476	23113.14091
665.675	23294.36097
665.873	23227.16402
666.071	23153.86227
666.269	23322.86983
666.467	22781.31153
666.665	23151.82617
666.863	22807.77314
667.061	23107.03281
667.259	23219.01918
667.457	22976.73396
667.655	22610.34298
667.853	22974.69815
668.051	22653.0828
668.249	22683.6122
668.447	22815.91529
668.645	23070.38489
668.843	22573.71008
669.041	22673.43564
669.239	22478.06296
669.437	22575.74521
669.635	22760.95684
669.833	22746.70877
670.031	22484.16786
670.229	22612.37817
670.426	22990.98473
670.624	22722.28389
670.822	22701.93021
671.02	23037.80985
671.218	22646.97702
671.415	22683.6122
671.613	23054.09726
671.811	22970.62653
672.009	23027.63033
672.206	22858.66249
672.404	22644.94176
672.602	22848.48445
672.799	23074.45683
672.997	23145.7179
673.195	23013.37913
673.392	22938.05412
673.59	22840.34208
673.788	22940.08987
673.985	22693.78884
674.183	22876.98317
674.38	22742.63792
674.578	22616.44857
674.775	22824.0575
674.973	23157.93448
675.17	23212.91058
675.368	23009.30739
675.565	23145.7179
675.763	22775.20509
675.96	22659.18862
676.158	22632.73031
676.355	22433.29468
676.553	23117.21298
676.75	22803.70209
676.947	22858.66249
677.145	22604.23741
677.342	23007.27153
677.539	22728.39006
677.737	22832.19976
677.934	22567.60471
678.131	22815.91529
678.329	23109.06884
678.526	22938.05412
678.723	23359.52498
678.92	23145.7179
679.118	22848.48445
679.315	22612.37817
679.512	23001.16395
679.709	23086.67272
679.906	22754.85051
680.104	22944.16138
680.301	22559.46427
680.498	22449.57385
680.695	22018.25519
680.892	22604.23741
681.089	22252.20461
681.286	22736.53168
681.483	21861.63871
681.68	22264.41201
681.877	22176.92854
682.075	22506.55276
682.272	22229.8247
682.469	22317.31231
682.665	22335.62453
682.862	22628.65985
683.059	22557.42916
683.256	22714.14238
683.453	22319.34699
683.65	22502.48275
683.847	22368.18032
684.044	22191.16957
684.241	21825.03034
684.438	22227.79019
684.635	22111.82902
684.831	22484.16786
685.028	22282.72337
685.225	22408.87636
685.422	22301.03503
685.619	22506.55276
685.815	22073.17799
686.012	22305.10433
686.209	21865.70638
686.405	22266.4466
686.602	22250.17005
686.799	22170.82529
686.996	22549.28879
687.192	22294.93111
687.389	22506.55276
687.586	22539.1134
687.782	22337.65924
687.979	22034.52833
688.175	21938.92713
688.372	22164.72209
688.568	21928.75729
688.765	22040.63081
688.962	22091.4862
689.158	22138.27524
689.355	21829.09787
689.551	21776.22112
689.748	21731.48131
689.944	21898.24832
690.14	21735.54849
690.337	22162.68769
690.533	22174.89412
690.73	22193.20401
690.926	22376.31941
691.123	21816.89531
691.319	21945.02908
691.515	22349.86757
691.712	21841.30057
691.908	21971.47128
692.104	21778.2548
692.301	21713.1792
692.497	21804.6929
692.693	21851.46959
692.889	22087.41769
693.086	22077.24646
693.282	21595.23986
693.478	22014.18694
693.674	21794.52432
693.87	21772.15379
694.067	21692.84389
694.263	21745.7165
694.459	21524.07598
694.655	21886.04498
694.851	21810.79409
695.047	21605.40653
695.243	21574.90683
695.439	21635.90711
695.635	21544.40802
695.831	21827.0641
696.027	21432.58669
696.224	21302.48251
696.42	21572.87355
696.615	21503.74433
696.811	21583.04
697.007	21137.84309
697.203	21131.74584
697.399	21446.81782
697.595	21902.31614
697.791	21601.33985
697.987	21751.81735
698.183	21717.2463
698.379	21143.94037
698.575	21753.85098
698.77	21485.44618
698.966	21454.94999
699.162	21578.9734
699.358	21835.1992
699.554	21637.94051
699.749	21627.77353
699.945	21601.33985
700.141	21585.0733
700.337	21613.53993
700.532	21670.4755
700.728	21452.91694
700.924	21770.12013
701.119	21395.99323
701.315	20995.5836
701.511	20617.67787
701.706	20952.90967
701.902	20920.39741
702.097	21387.86153
702.293	21267.92636
702.489	21361.43393
702.684	21546.44125
702.88	21546.44125
703.075	21133.77825
703.271	21438.68572
703.466	21274.02442
703.662	21127.68103
703.857	21152.07014
704.053	21113.45433
704.248	21135.81067
704.443	21117.51908
704.639	21544.40802
704.834	21249.6324
705.03	21320.77742
705.225	21202.88265
705.42	21229.30616
705.616	21019.96952
705.811	21127.68103
706.006	21265.89368
706.202	20932.58939
706.397	21280.12252
706.592	21452.91694
706.787	21225.24096
706.983	21182.55734
707.178	21213.04546
707.373	21217.11061
707.568	21034.19491
707.763	20554.70755
707.959	20920.39741
708.154	20768.0103
708.349	20637.99173
708.544	21101.26017
708.739	20780.20041
708.934	20532.36421
709.129	20757.85199
709.324	20599.39575
709.519	20965.10204
709.714	20394.25297
709.909	20725.34608
710.104	20554.70755
710.299	20603.45841
710.494	20772.07365
710.689	21121.58385
710.884	20942.74948
711.079	21026.06609
711.274	20983.39087
711.469	21556.60744
711.664	20893.98198
711.859	20810.67635
712.054	20424.71702
712.249	20721.28292
712.443	20384.09849
712.638	20670.49478
712.833	20191.18344
713.028	20227.73285
713.223	20083.57363
713.417	20560.80128
713.612	20292.71295
713.807	21125.64863
714.002	20906.17363
714.196	21135.81067
714.391	20934.6214
714.586	20991.51934
714.78	20985.42298
714.975	20784.26382
715.17	20650.18025
715.364	21192.71994
715.559	21125.64863
715.754	20603.45841
715.948	20680.6522
716.143	20335.35848
716.337	20449.08894
716.532	20680.6522
716.726	20830.99415
716.921	20975.26246
717.115	20904.14168
717.31	20965.10204
717.504	20841.15321
717.699	20818.80342
717.893	20593.30179
718.088	20475.49253
718.282	20688.77821
718.476	20514.08367
718.671	20310.98938
718.865	20359.72818
719.059	20118.0887
719.254	20282.55953
719.448	19746.60803
719.642	19768.93349
719.837	19929.28585
720.031	20083.57363
720.225	20087.63416
720.419	20566.89504
720.614	19720.22404
720.808	20014.54715
721.002	19425.98899
721.196	19943.49555
721.39	20097.78557
721.585	20337.38927
721.779	20091.69471
721.973	20205.39694
722.167	19738.4898
722.361	19888.68784
722.555	19864.32984
722.749	19476.71292
722.943	19488.88705
723.137	19261.66124
723.331	19202.83442
723.525	19553.81827
723.719	19917.10627
723.913	19882.59828
724.107	19647.16439
724.301	19762.84468
724.495	19701.95862
724.689	19665.42879
724.883	19348.89358
725.077	19584.25625
725.271	19541.64334
725.465	19693.84076
725.659	19860.27023
725.853	19900.86706
726.046	19553.81827
726.24	19381.35408
726.434	19397.58472
726.628	19734.43072
726.822	19551.78911
727.015	19807.49686
727.209	19371.21006
727.403	19874.47893
727.596	19874.47893
727.79	19880.56844
727.984	19535.55594
728.177	20024.69779
728.371	19825.76424
728.565	19576.13937
728.758	19448.3072
728.952	19452.36511
729.146	19632.95897
729.339	19600.49023
729.533	19669.4876
729.726	19608.60731
729.92	19679.63468
730.113	20016.57727
730.307	19768.93349
730.5	19890.7177
730.694	19768.93349
730.887	20093.72499
731.081	19701.95862
731.274	19728.34212
731.468	19188.63536
731.661	19586.28549
731.854	19062.881
732.048	19221.09065
732.241	19097.36047
732.435	19736.46026
732.628	19497.00322
732.821	19592.37321
733.014	19533.52681
733.208	19659.34062
733.401	19791.25947
733.594	19683.69354
733.788	19357.00861
733.981	19610.6366
734.174	19320.49151
734.367	19809.52655
734.56	19639.04698
734.754	19829.82371
734.947	19756.7559
735.14	19553.81827
735.333	19373.23885
735.526	19452.36511
735.719	18789.11482
735.912	18856.02869
736.105	18793.17008
736.298	19040.57138
736.491	19158.20948
736.684	19113.58651
736.877	19073.0219
737.07	19107.50172
737.263	19166.32295
737.456	19271.80414
737.649	19229.20463
737.842	19062.881
738.035	19131.84112
738.228	18716.12279
738.421	19401.64243
738.614	19452.36511
738.807	19168.35133
739	19040.57138
739.192	19292.09026
739.385	18914.83538
739.578	19255.57554
739.771	19180.5217
739.964	19066.93735
740.156	19200.80597
740.349	18977.70144
740.542	18931.05851
740.735	18756.67329
740.927	19182.55011
741.12	18949.30984
741.313	18740.4529
741.505	18622.86263
741.698	18762.756
741.891	18537.71925
742.083	18965.53351
742.276	19239.34721
742.468	18843.86221
742.661	18539.74639
742.854	18740.4529
743.046	18639.08119
743.239	18811.41896
743.431	18740.4529
743.624	18845.88995
743.816	18908.75178
744.009	19054.76835
744.201	18888.47335
744.393	18681.65611
744.586	18580.29008
744.778	18560.01804
744.971	18661.38213
745.163	18742.48043
745.355	18630.97188
745.548	18744.50797
745.74	18718.15028
745.932	18649.21792
746.125	18592.45349
746.317	18586.37177
746.509	18519.47513
746.702	18785.05957
746.894	18365.42602
747.086	18462.71763
747.278	18732.3428
747.471	18813.44664
747.663	18499.20425
747.855	18738.42537
748.047	18720.17777
748.239	18604.61704
748.431	18643.13587
748.623	18817.50199
748.815	18651.24528
749.008	18491.096
749.2	18677.60128
749.392	18533.66497
749.584	18525.55647
749.776	18612.72615
749.968	18535.69211
750.16	18517.44802
750.352	18912.80751
750.544	18789.11482
750.736	18432.31306
750.928	18795.19772
751.12	17962.16252
751.311	18251.93013
751.503	18239.77055
751.695	18278.27635
751.887	18590.42625
752.079	18722.20527
752.271	18343.13126
752.463	18582.31731
752.654	18172.89523
752.846	18304.62319
753.038	18168.84231
753.23	18079.68173
753.421	18120.20839
753.613	18114.1293
753.805	18497.17718
753.997	18420.15148
754.188	18018.89444
754.38	17881.12172
754.572	17627.90457
754.763	18035.10407
754.955	18047.26144
755.146	18091.83958
755.338	17794.00905
755.53	17804.13811
755.721	18130.34029
755.913	18320.83695
756.104	17970.26691
756.296	17933.79761
756.487	17879.09577
756.679	17836.55165
756.87	17771.72543
757.062	17475.99904
757.253	17668.41579
757.445	17642.08335
757.636	17668.41579
757.827	17498.27739
758.019	17617.77697
758.21	17577.26738
758.401	17569.16562
758.593	17601.57298
758.784	17536.75909
758.975	17269.43579
759.167	17115.54604
759.358	17330.1864
759.549	17085.17501
759.74	16566.93286
759.932	17172.24033
760.123	17212.73763
760.314	17147.94251
760.505	17370.68832
760.696	17137.81854
760.888	17447.64533
761.079	17133.76897
761.27	17218.81232
761.461	17111.49654
761.652	17243.11136
761.843	17378.78885
762.034	17405.1159
762.225	17077.07617
762.416	16898.91273
762.607	17050.75526
762.798	17220.83723
762.989	17073.02677
763.18	17273.48575
763.371	16977.86898
763.562	17010.26245
763.753	17066.95269
763.944	17399.04038
764.135	16925.23104
764.326	17212.73763
764.517	16781.49783
764.708	16888.79042
764.899	16702.55108
765.089	16558.83657
765.28	16279.53466
765.471	16516.3316
765.662	16573.00511
765.853	16407.03735
766.043	16334.17775
766.234	16471.80359
766.425	16265.36815
766.615	16398.94172
766.806	16368.58336
766.997	16528.47578
767.187	16235.01163
767.378	16799.71683
767.569	16384.77443
767.759	16593.24605
767.95	16427.27658
768.141	16587.17375
768.331	16494.06747
768.522	16269.41571
768.712	16532.52386
768.903	16730.89052
769.093	16162.15757
769.284	16121.68403
769.474	16046.80962
769.665	15957.7724
769.855	16022.52647
770.046	16000.2671
770.236	15779.70548
770.426	15565.22652
770.617	15696.74543
770.807	16123.70769
770.998	15953.72531
771.188	16083.23475
771.378	15810.05715
771.569	15832.3152
771.759	16024.55006
771.949	15619.85703
772.139	15884.92571
772.33	15636.04396
772.52	15852.54992
772.71	15982.05501
772.9	15553.08648
773.09	15982.05501
773.281	15739.23695
773.471	15822.19789
773.661	15579.38993
773.851	15621.8804
774.041	15215.19595
774.231	15747.33063
774.421	15180.80034
774.611	15312.31317
774.802	15223.28903
774.992	15128.1953
775.182	15035.1247
775.372	15302.19677
775.562	15431.68731
775.752	15330.5227
775.942	15051.31092
776.131	15253.63813
776.321	15120.10222
776.511	15126.17203
776.701	14917.77402
776.891	15158.54436
777.081	14982.51937
777.271	15063.45057
777.461	15433.71062
777.651	15273.87088
777.84	14889.44779
778.03	14938.00699
778.22	14942.05358
778.41	14648.66949
778.599	14826.72503
778.789	14938.00699
778.979	14956.21662
779.169	14954.19333
779.358	14879.33125
779.548	14954.19333
779.738	14703.30087
779.927	14768.04833
780.117	14877.30794
780.307	14820.65505
780.496	14583.92021
780.686	14719.48782
780.875	14681.04373
781.065	14743.76814
781.254	14381.57044
781.444	14672.95019
781.633	14521.19322
781.823	14757.9316
782.012	14662.83325
782.202	14646.64609
782.391	14426.0886
782.581	14233.84529
782.77	14128.61027
782.96	14290.50811
783.149	14080.03833
783.338	14140.75306
783.528	14160.99087
783.717	14298.60268
783.906	14067.89514
784.096	14007.17793
784.285	14268.24789
784.474	14248.01114
784.663	14187.29972
784.853	14460.4885
785.042	14252.0585
785.231	14197.41841
785.42	14116.46741
785.61	14296.57904
785.799	13881.68857
785.988	14203.4896
786.177	13978.84249
786.366	13964.67458
786.555	13912.04982
786.744	13879.66446
786.933	13916.09794
787.122	14191.3472
787.312	13916.09794
787.501	13930.26629
787.69	13634.72593
787.879	13802.74637
788.068	13351.264
788.257	13450.48405
788.445	13424.16128
788.634	13600.30934
788.823	13545.64565
789.012	13733.92133
789.201	13290.51224
789.39	13247.98374
789.579	13488.95462
789.768	13908.00169
789.957	13580.06383
790.145	13547.67028
790.334	13379.61356
790.523	13464.65757
790.712	13452.50885
790.9	13389.73821
791.089	12992.77061
791.278	13432.26066
791.467	13211.52921
791.655	13225.70614
791.844	13258.10974
792.033	13191.27607
792.221	13207.47862
792.41	13312.78832
792.599	12771.92671
792.787	12923.8903
792.976	12780.03222
793.164	13035.3114
793.353	13148.74301
793.541	13075.82441
793.73	12988.71899
793.918	12927.94225
794.107	12739.50377
794.295	12911.73433
794.484	12520.60917
794.672	12705.05278
794.861	12411.13439
795.049	12749.6361
795.238	12388.83161
795.426	12711.13249
795.614	12443.57336
795.803	12648.30627
795.991	12678.70676
796.179	12715.1856
796.368	12729.3713
796.556	12780.03222
796.744	12719.23869
796.932	12749.6361
797.121	12382.74889
797.309	12648.30627
797.497	12338.1404
797.685	12573.31255
797.874	12796.24297
798.062	12486.14694
798.25	12273.24932
798.438	12804.3482
798.626	12743.55672
798.814	12573.31255
799.002	12490.20142
799.19	12390.85916
799.378	12346.25128
799.566	12599.66265
799.755	12376.6661
799.943	12390.85916
800.131	12421.27175
800.318	12307.7236
800.506	12062.30196
800.694	12240.80106
800.882	12484.11969
801.07	12664.52003
801.258	12467.90147
801.446	12816.50589
801.634	12354.36205
801.822	12611.82388
802.01	12210.37914
802.197	12719.23869
802.385	12325.97386
802.573	12297.58432
802.761	12581.42038
802.949	12354.36205
803.136	12295.55644
803.324	12382.74889
803.512	12662.49333
803.699	12518.58203
803.887	12658.43992
804.075	12790.16398
804.262	12423.2992
804.45	12597.63576
804.638	12338.1404
804.825	12832.71584
805.013	12646.27952
805.201	12800.2956
805.388	12632.09212
805.576	12443.57336
805.763	12167.78569
805.951	12232.68871
806.138	12342.19585
806.326	12415.18936
806.513	12005.4944
806.701	12400.99686
806.888	12159.67228
807.075	12587.50119
807.263	12052.1582
807.45	12297.58432
807.638	12330.0294
807.825	12293.52855
808.012	12441.54597
808.2	12530.74477
808.387	12601.68954
808.574	12413.16188
808.761	12364.50036
808.949	12398.96934
809.136	12080.56023
809.323	12289.47276
809.51	12275.27728
809.698	12374.6385
809.885	12325.97386
810.072	12662.49333
810.259	12443.57336
810.446	12370.58326
810.633	12407.0794
810.82	12451.68284
811.008	12551.01549
811.195	12510.47341
811.382	12621.95808
811.569	12362.47271
811.756	12265.13743
811.943	12753.68899
812.13	12476.01064
812.317	12500.3375
812.504	12299.61219
812.691	12536.82605
812.878	12332.05716
813.064	12709.10592
813.251	12350.30668
813.438	12652.35975
813.625	12064.33069
813.812	12311.77926
813.999	12275.27728
814.186	12504.39188
814.372	12155.61553
814.559	12455.73753
814.746	12078.53157
814.933	12163.729
815.12	11954.76812
815.306	12088.67482
815.493	12062.30196
815.68	12039.98544
815.866	11983.17545
816.053	12204.29456
816.24	12175.89898
816.426	12257.02542
816.613	12123.16046
816.799	12226.60437
816.986	12137.35979
817.173	12179.95558
817.359	12200.23814
817.546	12228.63249
817.732	11948.68062
817.919	12218.49181
818.105	12025.78352
818.292	12228.63249
818.478	11948.68062
818.665	12076.50289
818.851	12133.30288
819.037	12102.87506
819.224	11987.23351
819.41	11770.08107
819.597	11828.94493
819.783	12305.69576
819.969	12084.61754
820.156	12218.49181
820.342	11975.05923
820.528	12287.44486
820.714	11837.06352
820.901	12222.54811
821.087	12037.95661
821.273	12461.81953
821.459	12096.78929
821.646	12437.49118
821.832	12094.76068
822.018	12350.30668
822.204	11875.62499
822.39	11830.97459
822.576	11745.72149
822.762	11522.36536
822.948	11540.64412
823.134	11514.24122
823.32	11463.46191
823.507	11820.8262
823.693	11589.38379
823.879	11899.97805
824.065	11920.27136
824.25	11593.44519
824.436	11648.27048
824.622	11495.96135
824.808	11562.9838
824.994	12078.53157
825.18	11556.89128
825.366	11780.23052
825.552	11495.96135
825.738	11792.40959
825.923	11617.81281
826.109	11776.17077
826.295	11473.61825
826.481	11737.60135
826.667	11536.58224
826.852	11506.11693
827.038	11284.67022
827.224	11660.45298
827.409	11363.91691
827.595	11560.95297
827.781	11144.42632
827.966	11276.54148
828.152	11087.50142
828.338	10957.35527
828.523	10764.08414
828.709	11095.63406
828.894	10711.17044
829.08	10989.89606
829.266	10788.50313
829.451	10922.77753
829.637	10865.81879
829.822	11095.63406
830.008	10920.74345
830.193	11032.60152
830.378	10705.06449
830.564	11008.199
830.749	11059.0358
830.935	11304.99135
831.12	11048.86899
831.305	11437.05429
831.491	11132.22883
831.676	10943.11778
831.861	10998.03081
832.047	10924.81161
832.232	10700.9938
832.417	11067.16905
832.602	11034.63499
832.788	10774.25892
832.973	10900.40195
833.158	10912.60699
833.343	10819.02448
833.528	10924.81161
833.714	10788.50313
833.899	10631.78458
834.084	10407.7736
834.269	10751.874
834.454	10436.29267
834.639	10356.84033
834.824	10448.51435
835.009	10625.67721
835.194	10493.32321
835.379	10819.02448
835.564	10275.32987
835.749	10354.80282
835.934	10259.0252
836.119	10293.67159
836.304	10322.20099
836.489	10328.31409
836.674	10224.37491
836.859	10191.75927
837.044	10236.60488
837.228	10348.69024
837.413	10411.84791
837.598	10403.69924
837.783	10044.94493
837.968	10409.81076
838.152	9924.58386
838.337	10106.1264
838.522	9896.01619
838.707	10153.02362
838.891	9979.67059
839.076	10067.37961
839.261	9893.97553
839.445	10267.17765
839.63	9977.63053
839.815	9993.95061
839.999	10081.65534
840.184	10356.84033
840.368	10189.72068
840.553	10348.69024
840.737	9979.67059
840.922	10053.1032
841.106	9904.17867
841.291	10122.43931
841.475	9922.54341
841.66	9747.00903
841.844	9593.83511
842.029	9749.05076
842.213	9898.05683
842.397	10032.70711
842.582	9653.07267
842.766	9612.22059
842.951	9385.37643
843.135	9546.84423
843.319	9373.10893
843.504	9765.3841
843.688	9585.66338
843.872	9710.25519
844.056	9698.00281
844.241	9661.24234
844.425	9354.70656
844.609	9409.90968
844.793	9450.79323
844.977	9526.4108
845.161	9475.32025
845.346	9424.21966
845.53	9467.14483
845.714	9489.62661
845.898	9252.44679
846.082	9375.15355
846.266	9479.40786
846.45	9272.90208
846.634	9481.45164
846.818	9358.79609
847.002	9236.08136
847.186	9536.62771
847.37	9416.04263
847.554	9610.17782
847.738	9182.88626
847.922	9628.56217
848.106	9242.21853
848.29	9342.43757
848.473	9121.49301
848.657	8795.84667
848.841	8894.20226
849.025	8883.95881
849.209	8779.45002
849.392	8931.07495
849.576	8687.19707
849.76	8842.98057
849.944	8875.76374
850.127	9109.21251
850.311	8912.63932
850.495	9205.39327
850.678	8871.6661
850.862	9293.35569
851.046	8736.40327
851.229	8726.15285
851.413	8812.24216
851.596	9027.32662
851.78	8826.58725
851.964	8957.70165
852.147	8879.86131
852.331	8806.09398
852.514	8588.75265
852.698	8535.41058
852.881	8334.23619
853.065	8229.4697
853.248	8091.75704
853.431	8399.9461
853.615	8136.98601
853.798	8340.39734
853.982	8038.29206
854.165	8069.13891
854.348	8237.68853
854.532	8342.45101
854.715	8272.61503
854.898	8455.37346
855.081	8106.14913
855.265	8369.14705
855.448	8046.51833
855.631	8182.20529
855.814	8009.49755
855.997	8153.4305
856.181	7708.97173
856.364	8167.81839
856.547	8071.1952
856.73	7947.78159
856.913	7865.46492
857.096	8145.20842
857.279	7898.39555
857.462	8196.59122
857.645	8011.55443
857.828	8141.09725
858.011	7951.89656
858.194	7956.01145
858.377	7622.43656
858.56	7696.61185
858.743	7626.55813
858.926	7735.74887
859.109	7494.62548
859.292	7636.86169
859.475	7562.66421
859.658	7949.83909
859.841	7766.64117
860.023	7645.10415
860.206	7731.62954
860.389	7713.09152
860.572	7445.12804
860.755	7659.52764
860.937	7317.20175
861.12	7504.93589
861.303	7482.25229
861.486	7465.75349
861.668	7488.43898
861.851	7511.12187
862.034	7337.8407
862.216	7232.55911
862.399	6937.04982
862.581	7131.35211
862.764	6976.3397
862.947	7463.69104
863.129	7379.11203
863.312	7447.19068
863.494	7180.92954
863.677	7655.40675
863.859	7412.12282
864.042	7364.66806
864.224	7180.92954
864.406	7108.62483
864.589	6810.85335
864.771	7085.89486
864.954	6634.8642
865.136	7052.82825
865.318	6734.26666
865.501	6932.91357
865.683	6957.72972
865.865	6790.15733
866.048	6800.50562
866.23	6709.421
866.412	6767.38907
866.594	6825.33921
866.777	6864.65234
866.959	6891.54607
867.141	6614.14868
867.323	6783.94807
867.505	6489.80706
867.687	6949.45803
867.869	6854.30758
868.052	6864.65234
868.234	6535.40866
868.416	6881.20279
868.598	6618.29197
868.78	6504.31787
868.962	6485.6609
869.144	6678.35929
869.326	6537.48119
869.508	6504.31787
869.69	6518.82756
869.872	6676.28832
870.054	6663.86205
870.236	6833.61634
870.417	6668.00423
870.599	6651.43495
870.781	6703.20907
870.963	6516.75481
871.145	6479.44149
871.327	6688.71377
871.508	6236.72101
871.69	6620.36358
871.872	6435.89977
872.054	6398.57013
872.235	6272.00794
872.417	6361.23295
872.599	6263.70574
872.78	6307.28811
872.962	6265.78133
873.144	6311.43827
873.325	6020.70034
873.507	6294.83706
873.689	6072.6516
873.87	6230.4932
874.052	6141.20475
874.233	6398.57013
874.415	6174.43343
874.596	6257.47885
874.778	6043.56071
874.959	6230.4932
875.141	6045.63878
875.322	6313.51332
875.503	6186.89263
875.685	6502.24497
875.866	6245.02443
876.048	6342.56152
876.229	6197.27466
876.41	6363.30743
876.592	6257.47885
876.773	6394.42193
876.954	5879.3184
877.136	6184.81616
877.317	6087.19532
877.498	6269.93243
877.679	6091.35045
877.86	6232.56916
878.042	6149.51248
878.223	6328.03799
878.404	6211.80851
878.585	6321.81327
878.766	6072.6516
878.947	6253.32747
879.128	6222.18913
879.309	6153.66621
879.49	6170.28017
879.672	6282.38516
879.853	5966.65541
880.034	6114.20202
880.215	6224.26518
880.396	6444.19422
880.576	6087.19532
880.757	6296.91229
880.938	5910.51496
881.119	6222.18913
881.3	6182.73966
881.481	6448.34131
881.662	6298.9875
881.843	6614.14868
882.023	6313.51332
882.204	6336.33729
882.385	5997.83712
882.566	6274.08343
882.747	6047.71683
882.927	6284.46054
883.108	6180.66314
883.289	6228.41722
883.469	6139.12776
883.65	6419.30975
883.831	6296.91229
884.011	6580.99905
884.192	6446.26778
884.373	6651.43495
884.553	6427.60495
884.734	6357.08391
884.914	6288.61122
885.095	6707.35038
885.275	6205.57986
885.456	6585.14308
885.636	6373.67952
885.817	6717.70325
885.997	6398.57013
886.178	6508.46361
886.358	6377.82819
886.538	6668.00423
886.719	6336.33729
886.899	6576.85493
887.08	6560.27753
887.26	6607.93357
887.44	6483.58779
887.621	6489.80706
887.801	6145.35866
887.981	6323.8882
888.161	6062.26252
888.342	6313.51332
888.522	6263.70574
888.702	6431.75241
888.882	6311.43827
889.062	6510.53645
889.242	6269.93243
889.423	6286.53589
889.603	6230.4932
889.783	6510.53645
889.963	6245.02443
890.143	6460.78201
890.323	6186.89263
890.503	6435.89977
890.683	6245.02443
890.863	6560.27753
891.043	6269.93243
891.223	6653.50619
891.403	6139.12776
891.583	6560.27753
891.763	6134.9737
891.943	6066.41822
892.122	6078.88476
892.302	6352.93477
892.482	6272.00794
892.662	6174.43343
892.842	5823.1512
893.022	5941.70622
893.201	5825.23178
893.381	6180.66314
893.561	6236.72101
893.741	6361.23295
893.92	6074.72934
894.1	6305.21299
894.28	6020.70034
894.459	6020.70034
894.639	6014.4652
894.819	6118.35654
894.998	6006.15135
895.178	6083.04009
895.357	5862.67806
895.537	6228.41722
895.716	6004.07283
895.896	6178.58659
896.075	6047.71683
896.255	6184.81616
896.434	6018.62198
896.614	6205.57986
896.793	5779.45371
896.973	6037.32634
897.152	5662.87618
897.331	6049.79486
897.511	5706.60143
897.69	5812.74798
897.87	5696.1916
898.049	5727.41932
898.228	5479.53348
898.407	5469.11081
898.587	5302.26813
898.766	5608.72575
898.945	5439.92419
899.124	5587.89441
899.304	5404.4771
899.483	5439.92419
899.662	5331.47644
899.841	5314.78654
900.02	5214.6157
900.199	5304.35459
900.378	5156.15787
900.557	5237.57627
900.737	5078.88205
900.916	5195.82767
901.095	5135.27565
901.274	4972.31477
901.453	4953.50255
901.632	5162.42208
901.811	5089.32659
901.989	4978.5851
902.168	4924.2354
902.347	5187.47683
902.526	4853.13931
902.705	4738.07513
902.884	4894.96374
903.063	5041.27694
903.242	4763.1859
903.42	5112.30252
903.599	4989.03518
903.778	4848.95637
903.957	4744.35313
904.135	4702.49596
904.314	4654.34908
904.493	4520.31286
904.672	4266.65426
904.85	4306.50597
905.029	4394.5716
905.207	4285.53235
905.386	4260.36118
905.565	4369.41389
905.743	4153.34946
905.922	4256.16568
906.1	3884.53232
906.279	4077.77878
906.457	3981.17714
906.636	4195.32141
906.814	3840.39774
906.993	4094.5746
907.171	4071.48001
907.35	3947.56641
907.528	3726.86885
907.707	3800.4589
907.885	3796.2544
908.063	3766.8207
908.242	3781.53803
908.42	3773.12824
908.598	3628.01075
908.777	3813.07194
908.955	3684.80673
909.133	3846.70321
909.311	3432.27625
909.49	3657.46225
909.668	3527.00631
909.846	3710.04492
910.024	3548.05243
910.202	3758.41036
910.38	3503.85347
910.559	3897.14059
910.737	3628.01075
910.915	3966.47308
911.093	3712.14798
911.271	4056.78214
911.449	3646.94428
911.627	3670.08318
911.805	3545.9479
911.983	3764.71814
912.161	3630.11455
912.339	3876.12641
912.517	3695.32298
912.695	4132.36032
912.872	3848.805
913.05	3962.27174
913.228	3880.32941
913.406	3951.76803
913.584	3789.9475
913.762	3754.20508
913.939	3556.47036
914.117	3863.51695
914.295	3554.3659
914.473	3955.96958
914.65	3899.2419
914.828	3941.26382
915.006	3861.4153
915.184	3905.5457
915.361	3324.8719
915.539	3699.52934
915.716	3358.57228
915.894	3484.90859
916.072	3461.75174
916.249	3434.38176
916.427	3478.5933
916.604	3655.35869
916.782	3366.99668
916.959	3602.76367
917.137	3472.27785
917.314	3697.42617
917.492	3480.69842
917.669	3724.76592
917.847	3385.95056
918.024	3535.42498
918.201	3274.31307
918.379	3350.1476
918.556	3126.79475
918.733	3377.52679
918.911	2937.01372
919.088	3208.9935
919.265	3335.40374
919.442	3463.857
919.62	3173.16632
919.797	3455.43586
919.974	3219.53
920.151	3379.63276
920.328	3029.81112
920.506	3343.82891
920.683	3200.564
920.86	3126.79475
921.037	2903.26208
921.214	2888.49456
921.391	2761.8875
921.568	3057.2229
921.745	2894.82358
921.922	3158.41258
922.099	2871.61654
922.276	3122.57876
922.453	2873.72634
922.63	3088.8486
922.807	2856.84752
922.984	2951.77889
923.161	2645.78848
923.338	2844.18781
923.514	2747.11346
923.691	2894.82358
923.868	2601.44962
924.045	3048.78878
924.222	2633.12079
924.399	2755.55585
924.575	2590.89195
924.752	2768.21903
924.929	2424.04226
925.105	2804.0954
925.282	2464.17706
925.459	2749.22408
925.635	2474.7382
925.812	2527.53969
925.989	2493.74755
926.165	2487.4112
926.342	2295.16314
926.518	2487.4112
926.695	2195.83868
926.871	2381.79095
927.048	2155.6808
927.224	2424.04226
927.401	2024.6198
927.577	2303.61536
927.754	2049.98862
927.93	2263.46601
928.107	2126.08891
928.283	2172.58974
928.459	2062.67266
928.636	2250.78658
928.812	1999.25
928.988	2255.01309
929.165	2066.90062
929.341	2197.95217
929.517	2016.1633
929.693	2151.45348
929.87	1885.07497
930.046	2121.86137
930.222	1908.3342
930.398	1992.9074
930.574	1804.72024
930.751	2043.64651
930.927	1973.87927
931.103	2100.72322
931.279	1857.58598
931.455	1817.40828
931.631	1730.70378
931.807	1749.73703
931.983	1667.25769
932.159	1758.19616
932.335	1514.97852
932.511	1669.3726
932.687	1373.27037
932.863	1741.27784
933.039	1434.60665
933.215	1696.86621
933.391	1576.31424
933.566	1705.32568
933.742	1360.58019
933.918	1421.91635
934.094	1254.831
934.27	1440.9518
934.445	1197.72897
934.621	1521.32364
934.797	1297.13008
934.973	1297.13008
935.148	1146.97372
935.324	1212.53298
935.5	1020.09709
935.675	1121.59697
935.851	1003.18171
936.027	1043.35637
936.202	952.43805
936.378	924.95358
936.553	929.18188
936.729	908.04069
936.904	726.26209
937.08	764.30296
937.255	732.602
937.431	658.64259
937.606	553.01184
937.782	789.66536
937.957	495.98513
938.133	553.01184
938.308	536.11396
938.483	512.88085
938.659	470.64331
938.834	434.74613
939.009	474.86679
939.185	426.3004
939.36	407.29842
939.535	354.52214
939.71	375.63139
939.886	485.42577
940.061	314.41933
940.236	379.85345
940.411	350.30049
940.586	403.07593
940.761	310.19835
940.937	316.52984
941.112	257.44235
941.287	333.4146
941.462	299.64623
941.637	318.64038
941.812	249.00247
941.987	318.64038
942.162	251.11241
942.337	312.30883
942.512	194.1509
942.687	278.54336
942.862	223.68471
943.037	251.11241
943.212	225.79441
943.386	259.55236
943.561	293.31517
943.736	263.77245
943.911	240.56291
944.086	202.58873
944.26	198.36978
944.435	236.34324
944.61	185.7134
944.785	215.24608
944.959	149.85767
945.134	187.82274
945.309	183.60407
945.483	310.19835
945.658	202.58873
945.833	251.11241
946.007	175.16697
946.182	202.58873
946.357	206.80777
946.531	274.323
946.706	295.42551
946.88	139.31302
947.055	151.96666
947.229	242.67277
947.404	240.56291
947.578	189.93211
947.752	175.16697
947.927	215.24608
948.101	200.47924
948.276	251.11241
948.45	257.44235
948.624	251.11241
948.799	240.56291
948.973	257.44235
949.147	213.13647
949.321	223.68471
949.496	274.323
949.67	291.20486
949.844	261.6624
950.018	175.16697
950.193	173.05775
950.367	398.85351
950.541	234.23344
950.715	274.323
950.889	234.23344
951.063	211.02688
951.237	223.68471
951.411	261.6624
951.585	192.04149
951.759	348.18969
951.933	259.55236
952.107	278.54336
952.281	240.56291
952.455	223.68471
952.629	249.00247
952.803	270.10273
952.977	303.86702
953.151	282.76378
953.325	324.97208
953.499	299.64623
953.672	147.7487
953.846	249.00247
954.02	217.35571
954.194	267.99262
954.368	291.20486
954.541	192.04149
954.715	189.93211
954.889	259.55236
955.062	316.52984
955.236	339.74668
955.41	244.78265
955.583	249.00247
955.757	284.87402
955.93	208.91732
956.104	198.36978
956.278	217.35571
956.451	177.27622
956.625	299.64623
956.798	166.73021
956.972	217.35571
957.145	200.47924
957.319	267.99262
957.492	225.79441
957.665	265.88252
957.839	230.01389
958.012	211.02688
958.185	261.6624
958.359	234.23344
958.532	225.79441
958.705	301.75662
958.879	240.56291
959.052	225.79441
959.225	227.90414
959.398	270.10273
959.572	183.60407
959.745	253.22237
959.918	249.00247
960.091	299.64623
960.264	253.22237
960.438	261.6624
960.611	234.23344
960.784	293.31517
960.957	242.67277
961.13	223.68471
961.303	208.91732
961.476	255.33235
961.649	211.02688
961.822	202.58873
961.995	232.12365
962.168	234.23344
962.341	114.00805
962.514	206.80777
962.686	187.82274
962.859	166.73021
963.032	189.93211
963.205	215.24608
963.378	181.49477
963.551	196.26033
963.723	160.40285
963.896	225.79441
964.069	189.93211
964.242	137.20416
964.414	177.27622
964.587	232.12365
964.76	189.93211
964.932	249.00247
965.105	147.7487
965.278	249.00247
965.45	217.35571
965.623	232.12365
965.795	198.36978
965.968	173.05775
966.14	227.90414
966.313	211.02688
966.485	225.79441
966.658	223.68471
966.83	164.62107
967.003	215.24608
967.175	267.99262
967.348	149.85767
967.52	257.44235
967.692	293.31517
967.865	97.13981
968.037	160.40285
968.209	202.58873
968.382	232.12365
968.554	225.79441
968.726	249.00247
968.898	160.40285
969.071	278.54336
969.243	192.04149
969.415	139.31302
969.587	168.83937
969.759	177.27622
969.932	141.42191
970.104	141.42191
970.276	217.35571
970.448	177.27622
970.62	139.31302
970.792	192.04149
970.964	92.92297
971.136	183.60407
971.308	242.67277
971.48	177.27622
971.652	141.42191
971.824	160.40285
971.996	179.38548
972.168	173.05775
972.339	156.18471
972.511	192.04149
972.683	156.18471
972.855	147.7487
973.027	242.67277
973.199	103.46523
973.37	130.87769
973.542	196.26033
973.714	158.29377
973.886	202.58873
974.057	122.44269
974.229	166.73021
974.401	130.87769
974.572	206.80777
974.744	97.13981
974.915	177.27622
975.087	122.44269
975.259	217.35571
975.43	147.7487
975.602	130.87769
975.773	90.81458
975.945	149.85767
976.116	114.00805
976.288	177.27622
976.459	192.04149
976.63	185.7134
976.802	141.42191
976.973	189.93211
977.145	80.27299
977.316	198.36978
977.487	139.31302
977.659	42.32793
977.83	59.19149
978.001	132.98649
978.172	143.53082
978.344	65.5157
978.515	122.44269
978.686	97.13981
978.857	97.13981
979.028	82.38126
979.2	143.53082
979.371	80.27299
979.542	137.20416
979.713	141.42191
979.884	105.57375
980.055	52.86748
980.226	99.24826
980.397	114.00805
980.568	95.03138
980.739	114.00805
980.91	33.89672
981.081	88.70622
981.252	65.5157
981.423	151.96666
981.594	88.70622
981.765	54.97546
981.936	116.11668
982.106	166.73021
982.277	126.66015
982.448	109.79086
982.619	111.89944
982.79	12.82031
982.96	109.79086
983.131	71.84011
983.302	63.4076
983.472	73.9483
983.643	173.05775
983.814	116.11668
983.984	101.35674
984.155	80.27299
984.326	46.54368
984.496	21.25059
984.667	139.31302
984.837	139.31302
985.008	160.40285
985.178	97.13981
985.349	139.31302
985.519	29.68125
985.69	84.48956
985.86	48.65159
986.031	97.13981
986.201	59.19149
986.371	95.03138
986.542	105.57375
986.712	23.35822
986.882	158.29377
987.053	88.70622
987.223	46.54368
987.393	38.11228
987.563	80.27299
987.734	99.24826
987.904	80.27299
988.074	183.60407
988.244	149.85767
988.414	88.70622
988.585	63.4076
988.755	130.87769
988.925	88.70622
989.095	99.24826
989.265	0.17561
989.435	63.4076
989.605	101.35674
989.775	57.08346
989.945	122.44269
990.115	122.44269
990.285	-29.32529
990.455	25.46587
990.625	42.32793
990.795	42.32793
990.965	82.38126
991.134	130.87769
991.304	122.44269
991.474	54.97546
991.644	25.46587
991.814	76.05651
991.984	71.84011
992.153	88.70622
992.323	130.87769
992.493	97.13981
992.662	42.32793
992.832	46.54368
993.002	52.86748
993.171	73.9483
993.341	59.19149
993.511	67.62381
993.68	82.38126
993.85	63.4076
994.019	151.96666
994.189	25.46587
994.358	27.57355
994.528	23.35822
994.697	84.48956
994.867	78.16474
995.036	71.84011
995.206	122.44269
995.375	44.4358
995.544	90.81458
995.714	59.19149
995.883	-10.36097
996.052	54.97546
996.222	97.13981
996.391	76.05651
996.56	40.22009
996.73	76.05651
996.899	-4.03909
997.068	59.19149
997.237	80.27299
997.406	-1.93175
997.576	42.32793
997.745	71.84011
997.914	-8.2537
998.083	114.00805
998.252	65.5157
998.421	73.9483
998.59	88.70622
998.759	-1.93175
998.928	59.19149
999.097	10.7128
999.266	38.11228
999.435	-12.46822
999.604	-10.36097
999.773	25.46587
999.942	122.44269
1000.111	17.0354
1000.28	38.11228
1000.448	107.68229
1000.617	97.13981
1000.786	71.84011
1000.955	54.97546
1001.124	-8.2537
1001.292	82.38126
1001.461	73.9483
1001.63	67.62381
1001.798	97.13981
1001.967	40.22009
1002.136	73.9483
1002.304	10.7128
1002.473	65.5157
1002.642	29.68125
1002.81	38.11228
1002.979	59.19149
1003.147	63.4076
1003.316	73.9483
1003.484	59.19149
1003.653	107.68229
1003.821	63.4076
1003.99	65.5157
1004.158	31.78897
1004.327	8.60532
1004.495	50.75953
1004.663	29.68125
1004.832	38.11228
1005	57.08346
1005.168	-1.93175
1005.337	-35.64629
1005.505	21.25059
1005.673	38.11228
1005.842	44.4358
1006.01	82.38126
1006.178	33.89672
1006.346	59.19149
1006.514	48.65159
1006.683	46.54368
1006.851	31.78897
1007.019	46.54368
1007.187	38.11228
1007.355	12.82031
1007.523	61.29953
1007.691	80.27299
1007.859	17.0354
1008.027	65.5157
1008.195	67.62381
1008.363	97.13981
1008.531	-4.03909
1008.699	-29.32529
1008.867	46.54368
1009.035	105.57375
1009.203	73.9483
1009.37	71.84011
1009.538	-12.46822
1009.706	67.62381
1009.874	2.283
1010.042	61.29953
1010.209	54.97546
1010.377	80.27299
1010.545	-1.93175
1010.713	73.9483
1010.88	52.86748
1011.048	14.92785
1011.216	73.9483
1011.383	54.97546
1011.551	61.29953
1011.718	-14.57544
1011.886	63.4076
1012.054	36.00449
1012.221	59.19149
1012.389	23.35822
1012.556	29.68125
1012.724	67.62381
1012.891	14.92785
1013.058	59.19149
1013.226	92.92297
1013.393	63.4076
1013.561	48.65159
1013.728	109.79086
1013.895	57.08346
1014.063	38.11228
1014.23	107.68229
1014.397	14.92785
1014.565	78.16474
1014.732	105.57375
1014.899	-18.7898
1015.066	54.97546
1015.233	17.0354
1015.401	46.54368
1015.568	6.49786
1015.735	12.82031
1015.902	29.68125
1016.069	38.11228
1016.236	38.11228
1016.403	42.32793
1016.57	21.25059
1016.737	73.9483
1016.904	-37.75323
1017.071	4.39042
1017.238	-29.32529
1017.405	71.84011
1017.572	21.25059
1017.739	118.22533
1017.906	63.4076
1018.073	4.39042
1018.24	59.19149
1018.407	50.75953
1018.573	48.65159
1018.74	-58.82135
1018.907	4.39042
1019.074	25.46587
1019.241	-8.2537
1019.407	67.62381
1019.574	23.35822
1019.741	0.17561
1019.907	57.08346
1020.074	44.4358
1020.241	12.82031
1020.407	-4.03909
1020.574	54.97546
1020.74	128.76891
1020.907	46.54368
1021.073	36.00449
1021.24	-20.89695
1021.406	-58.82135
1021.573	33.89672
1021.739	4.39042
1021.906	40.22009
1022.072	50.75953
1022.239	-46.18078
1022.405	-16.68263
1022.571	40.22009
1022.738	25.46587
1022.904	44.4358
1023.07	63.4076
1023.237	-1.93175
1023.403	-18.7898
1023.569	80.27299
1023.735	88.70622
1023.902	71.84011
1024.068	42.32793
1024.234	12.82031
1024.4	14.92785
1024.566	-4.03909
1024.732	67.62381
1024.898	59.19149
1025.065	57.08346
1025.231	46.54368
1025.397	2.283
1025.563	40.22009
1025.729	4.39042
1025.895	38.11228
1026.061	105.57375
1026.227	-8.2537
1026.392	46.54368
1026.558	-25.11117
1026.724	-10.36097
1026.89	84.48956
1027.056	29.68125
1027.222	-16.68263
1027.388	-12.46822
1027.553	4.39042
1027.719	38.11228
1027.885	25.46587
1028.051	90.81458
1028.216	-31.43231
1028.382	40.22009
1028.548	-46.18078
1028.713	57.08346
1028.879	46.54368
1029.045	6.49786
1029.21	-35.64629
1029.376	-1.93175
1029.541	54.97546
1029.707	-4.03909
1029.873	46.54368
1030.038	48.65159
1030.204	80.27299
1030.369	38.11228
1030.534	71.84011
1030.7	88.70622
1030.865	80.27299
1031.031	23.35822
1031.196	52.86748
1031.361	23.35822
1031.527	-29.32529
1031.692	38.11228
1031.857	-18.7898
1032.023	65.5157
1032.188	4.39042
1032.353	-25.11117
1032.518	86.59788
1032.684	63.4076
1032.849	-58.82135
1033.014	4.39042
1033.179	29.68125
1033.344	59.19149
1033.509	23.35822
1033.674	0.17561
1033.839	4.39042
1034.004	59.19149
1034.17	-16.68263
1034.335	57.08346
1034.5	50.75953
1034.664	65.5157
1034.829	-41.96706
1034.994	-25.11117
1035.159	27.57355
1035.324	33.89672
1035.489	38.11228
1035.654	40.22009
1035.819	59.19149
1035.984	48.65159
1036.148	14.92785
1036.313	82.38126
1036.478	50.75953
1036.643	0.17561
1036.807	52.86748
1036.972	23.35822
1037.137	29.68125
1037.301	14.92785
1037.466	50.75953
1037.631	33.89672
1037.795	116.11668
1037.96	29.68125
1038.124	-1.93175
1038.289	-20.89695
1038.454	42.32793
1038.618	23.35822
1038.783	29.68125
1038.947	-20.89695
1039.111	80.27299
1039.276	-20.89695
1039.44	8.60532
1039.605	88.70622
1039.769	57.08346
1039.933	25.46587
1040.098	48.65159
1040.262	88.70622
1040.426	80.27299
1040.591	29.68125
1040.755	120.334
1040.919	92.92297
1041.083	38.11228
1041.248	38.11228
1041.412	48.65159
1041.576	-16.68263
1041.74	54.97546
1041.904	-4.03909
1042.068	12.82031
1042.232	-4.03909
1042.397	12.82031
1042.561	-14.57544
1042.725	6.49786
1042.889	6.49786
1043.053	57.08346
1043.217	-8.2537
1043.381	0.17561
1043.544	84.48956
1043.708	25.46587
1043.872	-4.03909
1044.036	0.17561
1044.2	17.0354
1044.364	-1.93175
1044.528	52.86748
1044.691	-18.7898
1044.855	42.32793
1045.019	111.89944
1045.183	38.11228
1045.346	12.82031
1045.51	29.68125
1045.674	-12.46822
1045.837	6.49786
1046.001	57.08346
1046.165	12.82031
1046.328	46.54368
1046.492	8.60532
1046.655	29.68125
1046.819	86.59788
1046.983	105.57375
1047.146	4.39042
1047.31	90.81458
1047.473	23.35822
1047.636	31.78897
1047.8	-4.03909
1047.963	71.84011
1048.127	4.39042
1048.29	-58.82135
