Data from mixed_try1_USB4F045381__32__00054.txt Node

Date: Thu Apr 03 19:36:02 EDT 2025
User: mmckonesweet
Spectrometer: USB4F04538
Trigger mode: 4
Integration Time (sec): 2.700000E-3
Scans to average: 1
Electric dark correction enabled: true
Nonlinearity correction enabled: true
Boxcar width: 0
XAxis mode: Wavelengths
Number of Pixels in Spectrum: 3648
>>>>>Begin Spectral Data<<<<<
345.52	5.61975
345.736	5.61975
345.952	5.61975
346.168	-40.73804
346.384	56.20513
346.6	-19.66778
346.816	14.04971
347.032	16.15725
347.248	9.83468
347.464	33.01848
347.68	-53.37899
347.896	58.31314
348.112	-15.45344
348.328	-11.23899
348.544	9.83468
348.76	1.40492
348.975	-42.84492
349.191	-11.23899
349.407	-57.59244
349.623	39.34183
349.839	16.15725
350.055	-32.31023
350.27	45.6654
350.486	-53.37899
350.702	14.04971
350.918	-0.70246
351.133	14.04971
351.349	11.94218
351.565	-17.56062
351.781	89.9361
351.996	51.98916
352.212	18.26482
352.428	123.67278
352.644	30.91075
352.859	39.34183
353.075	1.40492
353.291	26.69535
353.506	45.6654
353.722	39.34183
353.938	-38.63112
354.153	73.06989
354.369	14.04971
354.584	14.04971
354.8	9.83468
355.016	-23.88203
355.231	-19.66778
355.447	68.85356
355.662	-13.34623
355.878	14.04971
356.093	16.15725
356.309	14.04971
356.524	-17.56062
356.74	11.94218
356.955	5.61975
357.171	60.42118
357.386	7.72721
357.602	24.58768
357.817	-59.69913
358.033	51.98916
358.248	33.01848
358.464	30.91075
358.679	30.91075
358.895	35.12624
359.11	64.63732
359.325	18.26482
359.541	98.36974
359.756	100.4782
359.972	60.42118
360.187	49.88122
360.402	-28.09618
360.618	60.42118
360.833	24.58768
361.048	26.69535
361.264	-36.52418
361.479	16.15725
361.694	-11.23899
361.909	-21.77492
362.125	22.48004
362.34	-34.41722
362.555	43.55752
362.77	30.91075
362.986	22.48004
363.201	14.04971
363.416	37.23403
363.631	30.91075
363.847	-28.09618
364.062	77.2863
364.277	-21.77492
364.492	-17.56062
364.707	22.48004
364.922	-21.77492
365.138	54.09713
365.353	-9.13173
365.568	-2.80981
365.783	22.48004
365.998	-44.95179
366.213	75.17808
366.428	-7.02445
366.643	-19.66778
366.858	-19.66778
367.073	-19.66778
367.288	18.26482
367.503	-19.66778
367.718	16.15725
367.933	-40.73804
368.148	-15.45344
368.363	39.34183
368.578	-15.45344
368.793	5.61975
369.008	-2.80981
369.223	56.20513
369.438	-44.95179
369.653	-40.73804
369.868	18.26482
370.083	28.80304
370.298	-38.63112
370.513	22.48004
370.728	37.23403
370.943	9.83468
371.157	9.83468
371.372	-2.80981
371.587	14.04971
371.802	-9.13173
372.017	-36.52418
372.232	5.61975
372.446	5.61975
372.661	64.63732
372.876	-36.52418
373.091	9.83468
373.306	14.04971
373.52	20.37242
373.735	-4.91714
373.95	-15.45344
374.165	-49.16544
374.379	-2.80981
374.594	18.26482
374.809	-0.70246
375.023	-44.95179
375.238	-9.13173
375.453	18.26482
375.667	-2.80981
375.882	111.02086
376.097	30.91075
376.311	68.85356
376.526	-11.23899
376.741	-25.98912
376.955	56.20513
377.17	56.20513
377.384	-21.77492
377.599	26.69535
377.813	30.91075
378.028	-34.41722
378.242	83.6111
378.457	18.26482
378.672	30.91075
378.886	30.91075
379.101	39.34183
379.315	-30.20322
379.53	14.04971
379.744	56.20513
379.958	28.80304
380.173	16.15725
380.387	18.26482
380.602	1.40492
380.816	3.51233
381.031	-2.80981
381.245	7.72721
381.459	24.58768
381.674	51.98916
381.888	1.40492
382.103	-36.52418
382.317	-70.23219
382.531	16.15725
382.746	24.58768
382.96	85.71941
383.174	18.26482
383.388	-32.31023
383.603	14.04971
383.817	-11.23899
384.031	-11.23899
384.246	43.55752
384.46	-28.09618
384.674	39.34183
384.888	81.50281
385.103	18.26482
385.317	-7.02445
385.531	39.34183
385.745	-28.09618
385.959	45.6654
386.174	39.34183
386.388	22.48004
386.602	81.50281
386.816	-2.80981
387.03	49.88122
387.244	-2.80981
387.458	98.36974
387.672	-2.80981
387.887	30.91075
388.101	30.91075
388.315	56.20513
388.529	-7.02445
388.743	54.09713
388.957	85.71941
389.171	30.91075
389.385	89.9361
389.599	41.44967
389.813	30.91075
390.027	-4.91714
390.241	64.63732
390.455	56.20513
390.669	-25.98912
390.883	-28.09618
391.097	68.85356
391.311	22.48004
391.525	22.48004
391.738	-36.52418
391.952	56.20513
392.166	24.58768
392.38	115.23808
392.594	-0.70246
392.808	14.04971
393.022	49.88122
393.236	-0.70246
393.449	-28.09618
393.663	26.69535
393.877	-9.13173
394.091	39.34183
394.305	37.23403
394.518	-17.56062
394.732	75.17808
394.946	11.94218
395.16	39.34183
395.373	54.09713
395.587	-34.41722
395.801	16.15725
396.015	39.34183
396.228	81.50281
396.442	-53.37899
396.656	-28.09618
396.869	43.55752
397.083	30.91075
397.297	-9.13173
397.51	-7.02445
397.724	-11.23899
397.938	14.04971
398.151	-9.13173
398.365	39.34183
398.578	-11.23899
398.792	58.31314
399.005	33.01848
399.219	24.58768
399.433	14.04971
399.646	-51.27223
399.86	26.69535
400.073	39.34183
400.287	62.52924
400.5	56.20513
400.714	85.71941
400.927	33.01848
401.141	64.63732
401.354	-17.56062
401.567	-61.80579
401.781	18.26482
401.994	5.61975
402.208	24.58768
402.421	79.39455
402.635	81.50281
402.848	-25.98912
403.061	-13.34623
403.275	62.52924
403.488	51.98916
403.701	60.42118
403.915	37.23403
404.128	16.15725
404.341	14.04971
404.555	5.61975
404.768	-15.45344
404.981	49.88122
405.195	-40.73804
405.408	47.77329
405.621	7.72721
405.834	18.26482
406.048	49.88122
406.261	37.23403
406.474	47.77329
406.687	47.77329
406.9	39.34183
407.114	1.40492
407.327	51.98916
407.54	39.34183
407.753	-15.45344
407.966	-19.66778
408.179	-55.48573
408.392	77.2863
408.605	22.48004
408.819	18.26482
409.032	64.63732
409.245	33.01848
409.458	33.01848
409.671	14.04971
409.884	7.72721
410.097	22.48004
410.31	-21.77492
410.523	102.58669
410.736	-19.66778
410.949	-34.41722
411.162	30.91075
411.375	35.12624
411.588	22.48004
411.801	-11.23899
412.014	-19.66778
412.227	49.88122
412.44	92.04447
412.653	-7.02445
412.865	16.15725
413.078	58.31314
413.291	11.94218
413.504	22.48004
413.717	-82.87101
413.93	5.61975
414.143	47.77329
414.356	33.01848
414.568	14.04971
414.781	22.48004
414.994	81.50281
415.207	5.61975
415.42	-30.20322
415.632	5.61975
415.845	49.88122
416.058	30.91075
416.271	47.77329
416.483	-2.80981
416.696	5.61975
416.909	7.72721
417.121	43.55752
417.334	-2.80981
417.547	-28.09618
417.759	-2.80981
417.972	1.40492
418.185	100.4782
418.397	68.85356
418.61	35.12624
418.823	-9.13173
419.035	64.63732
419.248	66.74543
419.46	-2.80981
419.673	24.58768
419.885	-28.09618
420.098	-11.23899
420.311	3.51233
420.523	7.72721
420.736	26.69535
420.948	64.63732
421.161	49.88122
421.373	5.61975
421.586	77.2863
421.798	64.63732
422.01	1.40492
422.223	43.55752
422.435	51.98916
422.648	-11.23899
422.86	5.61975
423.073	70.96171
423.285	-28.09618
423.497	24.58768
423.71	-19.66778
423.922	47.77329
424.134	5.61975
424.347	26.69535
424.559	35.12624
424.771	-34.41722
424.984	77.2863
425.196	41.44967
425.408	35.12624
425.621	-23.88203
425.833	70.96171
426.045	-13.34623
426.257	9.83468
426.47	-19.66778
426.682	102.58669
426.894	11.94218
427.106	-19.66778
427.318	-32.31023
427.531	39.34183
427.743	30.91075
427.955	24.58768
428.167	30.91075
428.379	22.48004
428.591	56.20513
428.804	26.69535
429.016	-25.98912
429.228	22.48004
429.44	56.20513
429.652	-19.66778
429.864	49.88122
430.076	37.23403
430.288	68.85356
430.5	47.77329
430.712	-2.80981
430.924	39.34183
431.136	30.91075
431.348	28.80304
431.56	9.83468
431.772	7.72721
431.984	66.74543
432.196	-9.13173
432.408	-4.91714
432.62	-19.66778
432.832	98.36974
433.044	-25.98912
433.256	35.12624
433.468	30.91075
433.679	5.61975
433.891	22.48004
434.103	30.91075
434.315	56.20513
434.527	56.20513
434.739	-23.88203
434.95	-7.02445
435.162	56.20513
435.374	106.80373
435.586	64.63732
435.798	-11.23899
436.009	35.12624
436.221	-9.13173
436.433	89.9361
436.645	-25.98912
436.856	39.34183
437.068	18.26482
437.28	54.09713
437.491	30.91075
437.703	96.26129
437.915	106.80373
438.126	16.15725
438.338	49.88122
438.55	81.50281
438.761	98.36974
438.973	134.21663
439.184	102.58669
439.396	22.48004
439.608	100.4782
439.819	30.91075
440.031	22.48004
440.242	22.48004
440.454	83.6111
440.665	37.23403
440.877	22.48004
441.088	64.63732
441.3	43.55752
441.511	89.9361
441.723	85.71941
441.934	100.4782
442.146	18.26482
442.357	-2.80981
442.569	-2.80981
442.78	33.01848
442.991	56.20513
443.203	14.04971
443.414	64.63732
443.626	58.31314
443.837	30.91075
444.048	64.63732
444.26	92.04447
444.471	39.34183
444.682	20.37242
444.894	43.55752
445.105	39.34183
445.316	132.10782
445.528	92.04447
445.739	47.77329
445.95	30.91075
446.161	41.44967
446.373	7.72721
446.584	14.04971
446.795	64.63732
447.006	1.40492
447.217	51.98916
447.429	136.32547
447.64	73.06989
447.851	18.26482
448.062	98.36974
448.273	43.55752
448.484	24.58768
448.695	18.26482
448.907	104.6952
449.118	33.01848
449.329	56.20513
449.54	75.17808
449.751	16.15725
449.962	24.58768
450.173	7.72721
450.384	47.77329
450.595	9.83468
450.806	47.77329
451.017	51.98916
451.228	108.91229
451.439	5.61975
451.65	132.10782
451.861	16.15725
452.072	26.69535
452.283	77.2863
452.494	60.42118
452.705	58.31314
452.915	30.91075
453.126	28.80304
453.337	111.02086
453.548	94.15287
453.759	60.42118
453.97	83.6111
454.181	45.6654
454.391	43.55752
454.602	92.04447
454.813	104.6952
455.024	39.34183
455.235	98.36974
455.445	51.98916
455.656	-23.88203
455.867	132.10782
456.078	132.10782
456.288	106.80373
456.499	121.56407
456.71	176.39736
456.921	119.45538
457.131	56.20513
457.342	159.52406
457.553	119.45538
457.763	140.5432
457.974	119.45538
458.184	100.4782
458.395	108.91229
458.606	151.08791
458.816	123.67278
459.027	132.10782
459.237	165.85139
459.448	108.91229
459.659	157.41499
459.869	163.74226
460.08	142.6521
460.29	92.04447
460.501	165.85139
460.711	201.70978
460.922	167.96055
461.132	92.04447
461.343	189.0532
461.553	60.42118
461.764	136.32547
461.974	174.28813
462.184	148.97893
462.395	148.97893
462.605	178.50662
462.816	98.36974
463.026	148.97893
463.236	178.50662
463.447	148.97893
463.657	256.56318
463.867	182.72519
464.078	199.6003
464.288	157.41499
464.498	161.63315
464.709	157.41499
464.919	153.19692
465.129	189.0532
465.339	191.16258
465.55	210.14789
465.76	189.0532
465.97	148.97893
466.18	203.81928
466.391	321.98209
466.601	159.52406
466.811	258.67319
467.021	311.42946
467.231	309.31899
467.441	258.67319
467.651	271.33363
467.862	233.35436
468.072	271.33363
468.282	425.42065
468.492	254.45319
468.702	233.35436
468.912	283.99475
469.122	321.98209
469.332	378.97385
469.542	366.30793
469.752	330.42451
469.962	326.20327
470.172	410.64126
470.382	435.97783
470.592	469.76342
470.802	324.09267
471.012	410.64126
471.222	444.42385
471.432	448.64696
471.642	440.20081
471.852	571.14282
472.062	397.97385
472.272	569.03042
472.482	579.59254
472.691	647.19775
472.901	482.43403
473.111	573.25523
473.321	615.5062
473.531	651.4235
473.741	562.6933
473.95	666.21399
474.16	695.79667
474.37	841.62734
474.58	664.10102
474.79	822.60332
474.999	803.58005
475.209	797.23912
475.419	803.58005
475.628	913.50209
475.838	761.30888
476.048	841.62734
476.258	968.47122
476.467	1069.96443
476.677	1029.78837
476.886	1072.07901
477.096	1133.40413
477.306	1131.2894
477.515	1120.71585
477.725	1239.14535
477.935	1179.92914
478.144	1177.81432
478.354	1203.19234
478.563	1471.79631
478.773	1205.3072
478.982	1454.8759
479.192	1454.8759
479.401	1461.22106
479.611	1533.13258
479.82	1520.44237
480.03	1723.47812
480.239	1695.98501
480.449	1666.37647
480.658	1808.06849
480.868	1748.85587
481.077	1886.30843
481.287	1860.93404
481.496	1831.32969
481.705	1869.39225
481.915	1943.39799
482.124	2125.20818
482.333	2089.27307
482.543	1907.45318
482.752	2304.84796
482.961	2030.08122
483.171	2264.69872
483.38	2152.68645
483.589	2283.7172
483.799	2140.00434
484.008	2368.23445
484.217	2423.16206
484.426	2609.01576
484.636	2442.17381
484.845	2771.56063
485.054	2581.56576
485.263	2872.84726
485.472	2634.35239
485.682	2803.21613
485.891	2651.24248
486.1	2811.65707
486.309	2845.41864
486.518	2961.44616
486.727	2976.21012
486.936	3292.396
487.146	3026.82379
487.355	3094.29489
487.564	3132.2403
487.773	3395.60245
487.982	3275.54204
488.191	3378.75527
488.4	3372.43729
488.609	3351.37622
488.818	3456.66396
489.027	3545.07101
489.236	3606.09503
489.445	3883.65672
489.654	3587.15822
489.863	3833.21628
490.072	3662.89634
490.281	3818.50233
490.49	3908.87263
490.698	3799.58297
490.907	3999.20575
491.116	4074.80438
491.325	4032.80844
491.534	4097.89862
491.743	4016.00775
491.952	4112.59364
492.16	4223.82253
492.369	4372.73349
492.578	4207.03707
492.787	4355.96022
492.996	4255.29161
493.204	4513.15472
493.413	4435.62083
493.622	4544.57878
493.831	4464.96152
494.039	4636.72714
494.248	4265.78023
494.457	4567.61991
494.665	4758.12913
494.874	4812.52602
495.083	4762.31405
495.291	5046.67443
495.5	4845.99339
495.709	4998.61391
495.917	4954.72192
496.126	5121.875
496.335	4822.9852
496.543	5038.31696
496.752	4975.62414
496.96	5111.43227
497.169	5192.87013
497.377	5343.12371
497.586	5215.83337
497.794	5363.98266
498.003	5038.31696
498.211	5405.69354
498.42	5355.63936
498.628	5597.4424
498.837	5414.03458
499.045	5514.09781
499.254	5482.83388
499.462	5776.50549
499.671	5487.00271
499.879	5841.00869
500.087	5747.36758
500.296	5784.82976
500.504	5695.32409
500.713	5824.36487
500.921	5849.33003
501.129	5857.65099
501.338	5734.87849
501.546	6117.49103
501.754	5874.29179
501.962	6198.48586
502.171	5917.96669
502.379	6387.3352
502.587	6048.92902
502.795	6208.86723
503.004	6042.69483
503.212	6200.56218
503.42	6213.01961
503.628	6196.40951
503.837	6428.81463
504.045	6306.42348
504.253	6445.4038
504.461	6592.56756
504.669	6445.4038
504.877	6325.09857
505.085	6602.92681
505.294	6455.77127
505.502	6563.5586
505.71	6971.34276
505.918	6685.78005
506.126	7016.82734
506.334	6631.92964
506.542	6942.39234
506.75	6720.98154
506.958	6723.05201
507.166	6764.45659
507.374	6940.32429
507.582	6919.64248
507.79	7107.7639
507.998	6857.58348
508.206	7184.19982
508.414	7225.50389
508.622	7306.02141
508.83	7025.09609
509.037	7147.01858
509.245	6851.37646
509.453	7250.28208
509.661	7231.69873
509.869	7499.95259
510.077	7508.20073
510.285	7341.10833
510.492	7341.10833
510.7	7487.57973
510.908	7351.42681
511.116	7594.78549
511.324	7283.31473
511.531	7466.95657
511.739	7266.79911
511.947	7528.81958
512.155	7745.18869
512.362	7520.5723
512.57	7365.87176
512.778	7722.53239
512.985	7806.96568
513.193	7796.67082
513.401	7858.43218
513.608	7885.18963
513.816	7732.83102
514.024	7745.18869
514.231	7864.60728
514.439	7965.44109
514.646	8055.94387
514.854	7901.65402
515.061	7757.54559
515.269	7957.21161
515.477	8162.85125
515.684	8105.29249
515.892	8105.29249
516.099	8134.07383
516.307	8099.12455
516.514	8382.66495
516.722	8314.89589
516.929	8399.09063
517.136	8214.22979
517.344	8450.41294
517.551	8450.41294
517.759	8386.77148
517.966	8433.9911
518.173	8335.4342
518.381	8536.6075
518.588	8487.35758
518.796	8712.99747
519.003	8557.12508
519.21	8606.35958
519.418	8835.9794
519.625	8684.2922
519.832	9055.13682
520.039	8649.43093
520.247	8829.83186
520.454	8501.72327
520.661	8981.4242
520.868	8917.93118
521.076	9116.54677
521.283	8942.51114
521.49	8930.22148
521.697	9012.14055
521.904	9282.27685
522.112	8926.12478
522.319	9165.66359
522.526	9220.90828
522.733	9255.68566
522.94	8913.83427
523.147	9417.23513
523.354	9008.04526
523.561	9196.35661
523.768	9245.45752
523.975	9257.73124
524.183	9165.66359
524.39	9556.20902
524.597	9372.25699
524.804	9809.44525
525.011	9468.3371
525.218	9752.28348
525.425	9758.40852
525.632	9711.44636
525.838	9678.77226
526.045	9668.5608
526.252	9768.61662
526.459	10103.23756
526.666	9817.61026
526.873	9952.29857
527.08	9995.14058
527.287	9938.01648
527.494	9782.90733
527.701	10037.97624
527.907	9817.61026
528.114	9895.16591
528.321	10129.74585
528.528	10388.5897
528.735	10194.98702
528.941	10088.96288
529.148	10111.39421
529.355	10221.48721
529.562	10180.71672
529.768	10486.36466
529.975	10290.78454
530.182	10470.0709
530.388	10170.52324
530.595	10559.67652
530.802	10148.09636
531.008	10626.86476
531.215	10667.57836
531.422	10909.72528
531.628	10714.39298
531.835	10565.7851
532.042	10567.82127
532.248	11035.82118
532.455	10840.55741
532.661	10946.33821
532.868	10761.20123
533.074	11098.85319
533.281	10966.67715
533.487	11092.75377
533.694	11064.28854
533.9	11407.76701
534.107	10803.9337
534.313	10960.57558
534.52	11123.24988
534.726	11235.0485
534.933	11096.82006
535.139	11137.48057
535.345	11153.74358
535.552	11275.69473
535.758	11586.50695
535.965	11214.72384
536.171	11401.67229
536.377	11424.01916
536.584	11365.10211
536.79	11438.23928
536.996	11771.26518
537.203	11434.17644
537.409	11503.23954
537.615	11509.33281
537.821	11560.10679
538.028	11683.97106
538.234	11673.81952
538.44	11870.72041
538.646	11629.15007
538.853	11712.39419
539.059	11870.72041
539.265	11964.06831
539.471	11803.74261
539.677	11962.03919
539.883	12033.0536
540.09	12104.05839
540.296	11941.74756
540.502	12422.45443
540.708	12051.31288
540.914	12047.25532
541.12	12278.48819
541.326	12258.20843
541.532	12148.68518
541.738	12343.37869
541.944	12428.53676
542.15	12582.60277
542.356	12546.11679
542.562	12635.3012
542.768	12546.11679
542.974	12568.41402
543.18	12829.84535
543.386	12690.02216
543.592	12756.89751
543.798	12726.50041
544.004	12716.36775
544.21	12906.83812
544.415	12673.809
544.621	12912.91617
544.827	12783.24063
545.033	13127.6445
545.239	12746.76529
545.445	13176.2547
545.651	13129.66998
545.856	13151.94994
546.062	13070.92919
546.268	13036.49305
546.474	13046.62148
546.679	12894.68188
546.885	13002.05549
547.091	13066.87795
547.297	12872.39495
547.502	13218.78647
547.708	13153.97536
547.914	13099.28731
548.119	13354.47024
548.325	13263.34147
548.531	13016.23584
548.736	13494.18516
548.942	13074.98041
549.147	13052.69847
549.353	13579.22026
549.559	13710.81017
549.764	13384.84464
549.97	13538.72815
550.175	13761.41803
550.381	13747.24802
550.586	13469.88823
550.792	13473.93776
550.997	13797.85451
551.203	13870.72463
551.408	13662.22475
551.614	13682.4689
551.819	13943.59116
552.025	14087.29047
552.23	13923.3508
552.435	14060.98023
552.641	14069.07573
552.846	14099.43353
553.052	14190.50397
553.257	14058.95635
553.462	14083.24277
553.668	14162.17141
553.873	14065.02799
554.078	14283.59398
554.283	14538.5613
554.489	14552.72548
554.694	14753.04184
554.899	14449.5278
555.105	14247.16793
555.31	14591.17084
555.515	14641.75621
555.72	14485.95091
555.925	14550.70203
556.131	14850.16183
556.336	14453.57483
556.541	14789.46202
556.746	14522.37358
556.951	14421.19839
557.156	14825.88198
557.361	14862.30172
557.567	15141.51517
557.772	15078.79374
557.977	14842.06855
558.182	14965.49004
558.387	15113.18937
558.592	15117.23592
558.797	15291.23734
559.002	14880.51152
559.207	15076.77046
559.412	15024.16527
559.617	14999.8859
559.822	15165.79442
560.027	15007.97903
560.232	15175.91077
560.437	14892.65136
560.642	15070.70064
560.847	15026.18855
561.051	15238.63218
561.256	15086.88683
561.461	15616.9906
561.666	15273.02785
561.871	15582.59357
562.076	15285.16751
562.281	15469.28711
562.485	15297.30718
562.69	15467.2638
562.895	15139.4919
563.1	15473.33374
563.305	15315.51669
563.509	15590.68697
563.714	15353.95909
563.919	15513.80012
564.123	15455.12394
564.328	15730.30021
564.533	15469.28711
564.737	15453.10063
564.942	15268.9813
565.147	15590.68697
565.351	15667.5749
565.556	15578.54687
565.761	15635.20089
565.965	15898.24708
566.17	15667.5749
566.374	15473.33374
566.579	15793.02646
566.784	15871.94163
566.988	15807.1906
567.193	15906.34111
567.397	15991.32967
567.602	16072.27343
567.806	15801.12025
568.011	16078.34431
568.215	16161.31437
568.42	16122.8645
568.624	15823.37824
568.828	16082.39157
569.033	15873.96512
569.237	16349.52529
569.442	16402.14624
569.646	16116.79352
569.85	16392.02672
570.055	16343.45372
570.259	16499.29615
570.463	16319.16763
570.668	16379.88337
570.872	16375.8356
571.076	16479.05619
571.281	16543.82479
571.485	16711.82882
571.689	16697.65919
571.893	16487.15215
572.098	16673.36868
572.302	16703.73188
572.506	16891.99582
572.71	16638.95768
572.914	16713.85306
573.119	16513.46424
573.323	16703.73188
573.527	16493.22414
573.731	16772.55709
573.935	16786.72734
574.139	17141.02445
574.343	16555.96914
574.547	17278.71696
574.751	16839.36073
574.955	17138.99966
575.159	17096.47971
575.364	17124.82621
575.568	17215.94371
575.772	17219.99352
575.976	17068.13376
576.18	16918.31401
576.383	17126.85098
576.587	17165.32216
576.791	17066.10907
576.995	16904.14262
577.199	17392.12107
577.403	17258.46722
577.607	17529.83905
577.811	17645.29047
578.015	17298.96701
578.219	17442.751
578.422	17331.36769
578.626	17578.44889
578.83	17272.64201
579.034	17673.64859
579.238	17582.49979
579.442	17758.72684
579.645	17132.92531
579.849	17550.09292
580.053	17651.36716
580.257	17541.99134
580.46	17548.06752
580.664	17683.77664
580.868	17718.21265
581.071	17657.44387
581.275	17870.14788
581.479	17728.34107
581.682	17726.31538
581.886	17649.34159
582.09	17653.39273
582.293	18163.94505
582.497	18143.68075
582.7	18099.10058
582.904	18265.27204
583.107	17910.6672
583.311	17558.19456
583.515	18145.70716
583.718	18070.73229
583.922	18394.98418
584.125	18084.91634
584.329	18324.04595
584.532	18034.25981
584.735	18429.44156
584.939	17847.86284
585.142	18088.96896
585.346	17991.71005
585.549	18277.43191
585.753	18153.81285
585.956	18405.11859
586.159	18624.04522
586.363	18293.64526
586.566	18474.03511
586.769	18589.58156
586.973	18711.22305
587.176	18741.63563
587.379	18407.14549
587.582	18309.85886
587.786	18429.44156
587.989	18739.60809
588.192	18555.11903
588.395	18668.64693
588.599	18701.08572
588.802	19023.50147
589.005	18765.96633
589.208	19051.89514
589.411	18942.38106
589.615	18889.65624
589.818	18909.9347
590.021	18843.01732
590.224	18911.96256
590.427	18942.38106
590.63	18816.65713
590.833	18895.73974
591.036	19348.04827
591.239	19226.33092
591.442	18982.94045
591.645	19155.33597
591.848	19388.62402
592.051	19201.98923
592.254	19218.21696
592.457	19380.50874
592.66	19469.7805
592.863	19662.55382
593.066	19429.20143
593.269	19510.36123
593.472	19329.78972
593.675	20064.45551
593.878	20025.88204
594.081	19818.82936
594.284	19859.42448
594.486	19920.32031
594.689	20015.73138
594.892	19863.48408
595.095	19772.14705
595.298	20023.8519
595.5	19597.61544
595.703	20015.73138
595.906	19522.53577
596.109	19971.06972
596.311	19926.4101
596.514	19703.14248
596.717	20078.66718
596.92	20364.97452
597.122	19908.14084
597.325	19719.37841
597.528	19656.46566
597.73	20379.19054
597.933	20056.33466
598.136	20143.6374
598.338	19922.35023
598.541	20460.42885
598.743	20362.94368
598.946	20180.18504
599.148	19822.8888
599.351	20194.39838
599.554	20235.00906
599.756	20224.85623
599.959	20421.83982
600.161	20431.99468
600.363	20639.17672
600.566	20523.39316
600.768	20537.61146
600.971	20870.78439
601.173	20659.49102
601.376	20832.17937
601.578	20793.57585
601.78	20702.15241
601.983	20543.70508
602.185	20791.54412
602.388	20852.49762
602.59	20807.79802
602.792	20620.8942
602.995	20726.53117
603.197	20511.20621
603.399	20923.61473
603.601	20450.2737
603.804	20757.00546
604.006	20517.29966
604.208	20722.468
604.41	20559.95492
604.613	21173.58046
604.815	20880.94385
605.017	21122.76941
605.219	20954.09503
605.421	20864.68876
605.623	21067.89634
605.826	21161.38557
606.028	20484.80166
606.23	20909.3909
606.432	20925.64672
606.634	21134.96383
606.836	20610.7374
607.038	21084.15472
607.24	21114.63988
607.442	21384.98156
607.644	21348.38979
607.846	21169.51548
608.048	21474.43357
608.25	21090.25167
608.452	21143.09352
608.654	21279.27556
608.856	21313.83209
609.058	21311.79932
609.26	21218.29628
609.462	21486.63216
609.664	21415.4757
609.866	21370.75128
610.067	21502.89718
610.269	21254.88341
610.471	21096.34867
610.673	21340.25846
610.875	21523.22882
611.077	21639.12667
611.278	21212.19855
611.48	21208.13342
611.682	21067.89634
611.884	21254.88341
612.085	21143.09352
612.287	21517.12929
612.489	21232.52445
612.69	21334.16001
612.892	21478.49975
613.094	21387.01448
613.295	21143.09352
613.497	21153.25573
613.699	21134.96383
613.9	21185.77549
614.102	21700.13066
614.304	21708.26479
614.505	21242.68755
614.707	21630.99307
614.908	21189.84053
615.11	21580.15949
615.311	21354.48833
615.513	21671.66169
615.714	21226.42664
615.916	21675.72864
616.117	21533.39478
616.319	21588.2927
616.52	21746.90277
616.722	21563.89327
616.923	21480.53285
617.124	21429.7066
617.326	20878.91195
617.527	21860.79128
617.729	21584.22609
617.93	21604.5593
618.131	21698.09714
618.333	21858.75745
618.534	21828.25047
618.735	21759.10453
618.937	21799.77807
619.138	21917.74006
619.339	21330.0944
619.54	21710.29834
619.742	21755.03726
619.943	21681.82909
620.144	21588.2927
620.345	21962.48764
620.546	21860.79128
620.748	22304.25656
620.949	21486.63216
621.15	22314.42986
621.351	21958.4196
621.552	21824.18294
621.753	21639.12667
621.954	22035.71492
622.155	21620.82615
622.356	22117.08431
622.558	21986.89619
622.759	22361.22822
622.96	21777.40743
623.161	22184.21856
623.362	21811.98043
623.563	22167.94322
623.764	21795.71065
623.965	21850.62217
624.166	21960.45362
624.366	21970.62376
624.567	21934.01169
624.768	22139.46194
624.969	21710.29834
625.17	21999.10066
625.371	22096.74139
625.572	22088.60434
625.773	21990.96433
625.973	22379.54115
626.174	21881.12978
626.375	22214.73548
626.576	22153.70249
626.777	22031.64661
626.977	21832.31802
627.178	22182.18413
627.379	21669.62822
627.58	21956.38559
627.78	21954.35158
627.981	22115.05
628.182	22328.67263
628.382	22190.32188
628.583	22373.43681
628.784	22043.85159
628.984	21724.53325
629.185	22336.81144
629.386	21767.23912
629.586	22351.0545
629.787	22450.76088
629.987	22261.5297
630.188	21962.48764
630.388	21970.62376
630.589	21913.67219
630.79	22247.28777
630.99	22399.88919
631.191	22562.68652
631.391	22945.34891
631.591	22399.88919
631.792	22320.53388
631.992	22662.41114
632.193	22458.90056
632.393	22617.63577
632.594	22261.5297
632.794	22149.63374
632.994	22344.95031
633.195	22210.66651
633.395	22349.01977
633.595	22257.46056
633.796	22550.47592
633.996	22572.86211
634.196	22206.59755
634.397	22503.66983
634.597	22548.44084
634.797	22760.10874
634.997	22465.00536
635.198	22306.29121
635.398	22393.78474
635.598	22699.0468
635.798	22784.53439
635.998	22572.86211
636.199	22422.27246
636.399	22397.85437
636.599	22428.37706
636.799	22705.15285
636.999	22440.58637
637.199	22855.7787
637.399	22937.20589
637.599	22965.70669
637.799	22450.76088
637.999	23142.83344
638.199	22810.99607
638.399	22941.27739
638.599	22884.2776
638.799	23336.27599
638.999	23199.84506
639.199	22843.56509
639.399	22699.0468
639.599	22986.0648
639.799	22981.99315
639.999	22845.60068
640.199	23134.68913
640.399	22896.49162
640.599	21948.24957
640.799	23254.82295
640.998	23431.98979
641.198	23195.77271
641.398	23045.10523
641.598	23226.3156
641.798	23747.69002
641.997	23372.93152
642.197	22979.95733
642.397	23354.60362
642.597	23053.24895
642.796	22967.74248
642.996	22711.25894
643.196	23519.56379
643.395	22973.84989
643.595	22823.20935
643.795	23043.0693
643.994	23344.42157
644.194	23096.00439
644.394	23114.32859
644.593	23010.49498
644.793	23340.34877
644.992	23071.57253
645.192	23041.03338
645.392	23187.62807
645.591	23142.83344
645.791	23291.47618
645.99	23334.2396
646.19	23279.25832
646.389	23478.83099
646.589	23580.66531
646.788	23470.68457
646.987	22971.81409
647.187	23572.51828
647.386	23150.9778
647.586	23694.72878
647.785	23281.29463
647.984	23348.49438
648.184	23613.25391
648.383	23454.3919
648.582	22939.24164
648.782	23073.6085
648.981	23051.21302
649.18	23283.33093
649.38	23611.2171
649.579	23806.76453
649.778	23562.33456
649.977	23690.65493
650.177	23470.68457
650.376	23713.06129
650.575	23364.78576
650.774	23708.98738
650.973	23517.52712
651.173	23521.60047
651.372	23698.80265
651.571	23810.83872
651.77	23772.13435
651.969	23778.24549
652.168	23721.20915
652.367	24008.45106
652.566	23550.11421
652.765	24053.27407
652.964	23411.62457
653.163	23548.07749
653.362	23340.34877
653.561	23810.83872
653.76	23774.17139
653.959	23914.73463
654.158	23757.87511
654.357	23688.618
654.556	23768.06026
654.755	23692.69185
654.954	23686.58108
655.153	23656.02762
655.352	23808.80163
655.551	23847.50701
655.749	24073.64862
655.948	24073.64862
656.147	24222.39116
656.346	24872.53903
656.545	24297.78675
656.743	23975.85335
656.942	23493.08733
657.141	23965.66672
657.34	23570.48153
657.538	23715.09825
657.737	23963.6294
657.936	24699.27728
658.135	24012.52582
658.333	24403.75425
658.532	24487.31053
658.731	24010.48844
658.929	23867.87868
659.128	24049.1992
659.326	24118.4736
659.525	24316.12677
659.724	24020.67538
659.922	23688.618
660.121	24006.41368
660.319	23804.72744
660.518	24136.81147
660.716	24089.94846
660.915	24165.3375
661.113	24108.28598
661.312	24012.52582
661.51	23914.73463
661.709	23931.0327
661.907	24206.0899
662.105	24195.9017
662.304	24615.71024
662.502	24071.61115
662.701	24636.09206
662.899	23763.98619
663.097	24305.93784
663.296	24373.18597
663.494	24687.0477
663.692	24020.67538
663.891	24236.65491
664.089	24275.37146
664.287	24275.37146
664.485	23890.28785
664.684	24022.71278
664.882	23853.61848
665.08	24032.89981
665.278	23986.04006
665.476	24261.10736
665.675	24238.6926
665.873	24819.53948
666.071	24326.31576
666.269	23951.40556
666.467	24098.09844
666.665	24491.38656
666.863	24206.0899
667.061	24442.47492
667.259	24230.54186
667.457	24177.56311
667.655	24120.51113
667.853	24004.3763
668.051	23770.0973
668.249	23849.54416
668.447	24399.67845
668.645	24440.43696
668.843	23981.96537
669.041	24220.3535
669.239	24091.98595
669.437	23653.99074
669.635	24110.3235
669.833	23629.5485
670.031	23790.46787
670.229	23678.43342
670.426	24149.03685
670.624	23880.10182
670.822	24257.03192
671.02	24034.93722
671.218	23825.0985
671.415	23892.32507
671.613	23662.13826
671.811	23833.24701
672.009	24301.86229
672.206	24252.9565
672.404	23772.13435
672.602	23910.66013
672.799	24043.0869
672.997	24279.44694
673.195	24120.51113
673.392	24462.85459
673.59	24043.0869
673.788	23933.06997
673.985	23804.72744
674.183	24206.0899
674.38	23721.20915
674.578	24083.836
674.775	23876.02743
674.973	24175.5255
675.17	23935.10725
675.368	24024.75018
675.565	24079.76104
675.763	24405.79216
675.96	24204.05225
676.158	23973.81602
676.355	23580.66531
676.553	24010.48844
676.75	23580.66531
676.947	24051.23663
677.145	23609.18029
677.342	24197.93933
677.539	23761.94916
677.737	23865.8415
677.934	23684.54416
678.131	24041.04948
678.329	24118.4736
678.526	24252.9565
678.723	24032.89981
678.92	23910.66013
679.118	23829.17275
679.315	23841.39556
679.512	23702.87654
679.709	24065.49877
679.906	23711.02434
680.104	23873.99024
680.301	23523.63714
680.498	23660.10137
680.695	23252.78669
680.892	23489.01407
681.089	23684.54416
681.286	23454.3919
681.483	22835.42275
681.68	23313.87589
681.877	23165.23056
682.075	23554.18765
682.272	23468.64798
682.469	23442.17252
682.665	23421.80714
682.862	23462.53821
683.059	23358.67647
683.256	23546.04078
683.453	23403.47857
683.65	23639.73271
683.847	23804.72744
684.044	23295.54883
684.241	23047.14115
684.438	23385.15025
684.635	23093.96838
684.831	23890.28785
685.028	23515.49046
685.225	23421.80714
685.422	23087.86039
685.619	23120.43672
685.815	23053.24895
686.012	23297.58516
686.209	22975.8857
686.405	23374.96797
686.602	23096.00439
686.799	23364.78576
686.996	23529.74719
687.192	23702.87654
687.389	23546.04078
687.586	23629.5485
687.782	23704.91348
687.979	23723.24612
688.175	22994.20814
688.372	23142.83344
688.568	22878.17064
688.765	23179.48347
688.962	23287.40355
689.158	23124.50882
689.355	23148.94171
689.551	22731.61278
689.748	22902.59867
689.944	22802.85395
690.14	22786.56988
690.337	23081.75242
690.533	23374.96797
690.73	23102.11243
690.926	23102.11243
691.123	22713.29431
691.319	22703.1175
691.515	22898.5273
691.712	22591.1784
691.908	23034.92564
692.104	22692.94078
692.301	22652.23477
692.497	22281.87562
692.693	22902.59867
692.889	22733.64818
693.086	22613.56537
693.282	22756.03785
693.478	22813.03161
693.674	22550.47592
693.87	22762.14419
694.067	22546.40575
694.263	22847.63628
694.459	22810.99607
694.655	23061.39273
694.851	22947.38467
695.047	22416.16789
695.243	22637.988
695.439	22469.07525
695.635	22300.18726
695.831	22656.30531
696.027	22353.08924
696.224	22104.87851
696.42	22410.06335
696.615	22491.45986
696.811	22568.79186
697.007	22446.69107
697.203	22379.54115
697.399	22503.66983
697.595	22261.5297
697.791	22719.40043
697.987	22306.29121
698.183	22692.94078
698.379	21936.04567
698.575	22287.97947
698.77	22491.45986
698.966	22292.04872
699.162	22733.64818
699.358	22792.67638
699.554	22589.14324
699.749	22572.86211
699.945	22684.79947
700.141	22646.12899
700.337	22361.22822
700.532	22861.88555
700.728	22365.29773
700.924	22499.59983
701.119	22200.49415
701.315	21995.03249
701.511	21889.26529
701.706	22023.51003
701.902	21807.91296
702.097	22127.2559
702.293	22062.15931
702.489	22570.82699
702.684	22491.45986
702.88	22538.26546
703.075	22454.83072
703.271	22086.57008
703.466	22556.5812
703.662	22259.49513
703.857	22176.08086
704.053	22060.1251
704.248	22176.08086
704.443	22664.44643
704.639	22320.53388
704.834	22707.18821
705.03	22607.45979
705.225	22092.67286
705.42	22161.84003
705.616	22045.88576
705.811	21773.34009
706.006	22161.84003
706.202	22096.74139
706.397	22194.39078
706.592	22208.63203
706.787	22094.70712
706.983	22049.95413
707.178	22430.41194
707.373	21913.67219
707.568	22125.22157
707.763	21582.19279
707.959	21584.22609
708.154	21600.49263
708.349	21710.29834
708.544	21962.48764
708.739	21846.55455
708.934	21584.22609
709.129	21909.60434
709.324	21799.77807
709.519	21881.12978
709.714	21309.76656
709.909	21673.69516
710.104	21246.75282
710.299	21370.75128
710.494	21710.29834
710.689	21999.10066
710.884	21572.02635
711.079	21820.11542
711.274	21740.80195
711.469	22224.90797
711.664	21283.34097
711.859	21488.66528
712.054	21376.84995
712.249	21545.59407
712.443	21401.24499
712.638	21594.39264
712.833	20998.80115
713.028	21478.49975
713.223	20947.9989
713.417	21883.16366
713.612	21474.43357
713.807	21850.62217
714.002	22104.87851
714.196	21870.96048
714.391	21830.28424
714.586	22110.98139
714.78	21661.49439
714.975	21519.16246
715.17	21769.27277
715.364	22051.98831
715.559	21700.13066
715.754	21899.43477
715.948	21637.09326
716.143	21535.42799
716.337	21342.29129
716.532	21578.1262
716.726	21633.02646
716.921	21850.62217
717.115	21909.60434
717.31	21931.97773
717.504	21641.16008
717.699	21529.32838
717.893	21537.46119
718.088	21513.06295
718.282	21610.65934
718.476	21326.0288
718.671	21389.0474
718.865	21356.52118
719.059	21053.67047
719.254	20970.35157
719.448	20643.23955
719.642	20933.77473
719.837	20436.05665
720.031	21094.31633
720.225	20850.46577
720.419	21145.12596
720.614	20860.62503
720.808	20870.78439
721.002	20468.55305
721.196	21071.96091
721.39	20783.41727
721.585	21047.57373
721.779	20824.05219
721.973	20968.31949
722.167	20568.07994
722.361	20592.45541
722.555	20590.42409
722.749	20759.03712
722.943	20503.08165
723.137	19908.14084
723.331	20362.94368
723.525	20691.99477
723.719	20653.39669
723.913	20832.17937
724.107	20434.02566
724.301	20291.86683
724.495	20275.62141
724.689	20819.98862
724.883	19938.5898
725.077	20352.78953
725.271	20121.3034
725.465	20364.97452
725.659	20667.61686
725.853	20462.4599
726.046	20332.48154
726.24	20411.68506
726.434	20151.75898
726.628	20403.56133
726.822	20255.31503
727.015	20462.4599
727.209	20572.14248
727.403	20935.80674
727.596	20584.33018
727.79	20744.81564
727.984	20728.56276
728.177	20901.26309
728.371	20265.46817
728.565	20407.62318
728.758	20373.09793
728.952	20417.7779
729.146	20295.92822
729.339	20781.38557
729.533	20389.34496
729.726	20612.76875
729.92	20531.51788
730.113	20706.2155
730.307	20759.03712
730.5	20267.49881
730.694	20604.64336
730.887	20440.11865
731.081	20312.17398
731.274	20360.91284
731.468	20184.24597
731.661	20440.11865
731.854	20332.48154
732.048	20245.16199
732.241	20265.46817
732.435	20352.78953
732.628	19993.4003
732.821	20135.51588
733.014	20082.72769
733.208	20255.31503
733.401	20419.80886
733.594	20072.57644
733.788	20496.98828
733.981	20109.12143
734.174	20255.31503
734.367	20060.39508
734.56	20389.34496
734.754	20492.92606
734.947	20466.522
735.14	20163.94147
735.333	20271.5601
735.526	19881.75251
735.719	19995.43038
735.912	19540.79787
736.105	19816.79965
736.298	19902.05116
736.491	19831.00772
736.684	19997.46046
736.877	19981.21992
737.07	20058.36486
737.263	19859.42448
737.456	20003.55073
737.649	19958.88962
737.842	20050.24406
738.035	19881.75251
738.228	20034.00265
738.421	19804.62147
738.614	19810.71054
738.807	20064.45551
739	19735.61461
739.192	19875.663
739.385	19940.61976
739.578	20021.82177
739.771	19654.43629
739.964	19745.76238
740.156	19900.02128
740.349	19678.78908
740.542	19613.84963
740.735	19630.08409
740.927	19538.76873
741.12	19944.6797
741.313	19812.74024
741.505	19652.40691
741.698	19603.70323
741.891	19281.10189
742.083	19747.79194
742.276	19798.53243
742.468	19626.02545
742.661	19516.44848
742.854	19646.31882
743.046	19488.04162
743.239	19506.30308
743.431	19853.3351
743.624	19609.79106
743.816	19406.88365
744.009	19431.23034
744.201	19346.01953
744.393	19492.09969
744.586	19317.61754
744.778	19496.15778
744.971	19557.03113
745.163	19467.7515
745.355	19303.41685
745.548	19307.47417
745.74	19191.84703
745.932	19557.03113
746.125	19585.43997
746.317	19479.92552
746.509	19301.3882
746.702	19421.08581
746.894	19189.8186
747.086	18922.10196
747.278	19159.39269
747.471	19128.96769
747.663	19686.90681
747.855	19806.65115
748.047	19451.51971
748.239	19587.46921
748.431	19291.24499
748.623	19321.67492
748.815	19204.01768
749.008	19676.75966
749.2	19522.53577
749.392	19540.79787
749.584	18869.37819
749.776	19258.78743
749.968	19078.2614
750.16	19248.64466
750.352	19256.75887
750.544	19530.65222
750.736	19615.87893
750.928	19313.56018
751.12	19094.48714
751.311	18916.01831
751.503	19224.30243
751.695	19078.2614
751.887	19220.24544
752.079	19654.43629
752.271	19072.17682
752.463	18887.62842
752.654	18757.85603
752.846	18830.85099
753.038	18561.20057
753.23	19025.52956
753.421	18542.95605
753.613	18502.41378
753.805	19199.96078
753.997	18855.18379
754.188	18761.91117
754.38	18547.01036
754.572	18699.05827
754.763	18542.95605
754.955	18242.97931
755.146	18867.35041
755.338	18654.45527
755.53	18729.47049
755.721	18877.48936
755.913	18964.68852
756.104	18697.03082
756.296	18735.55304
756.487	18532.82033
756.679	18873.43377
756.87	18774.07669
757.062	18713.25053
757.253	18474.03511
757.445	18234.87298
757.636	18101.12691
757.827	18555.11903
758.019	18664.59215
758.21	18607.82689
758.401	18514.5763
758.593	18149.76
758.784	17934.97946
758.975	17845.83695
759.167	17835.70754
759.358	17726.31538
759.549	17477.18046
759.74	17116.72715
759.932	17523.76295
760.123	17975.50103
760.314	18093.0216
760.505	17833.68167
760.696	17995.76234
760.888	18224.74014
761.079	17691.87915
761.27	17825.57822
761.461	17781.01022
761.652	17829.62994
761.843	17610.85649
762.034	17845.83695
762.225	17625.03507
762.416	17969.4227
762.607	17541.99134
762.798	17811.39731
762.989	17629.08613
763.18	17685.80226
763.371	17501.48416
763.562	17592.62711
763.753	17671.62299
763.944	17734.41817
764.135	17335.41783
764.326	17635.16273
764.517	17675.67419
764.708	17533.8898
764.899	17254.41731
765.089	17189.62028
765.28	17068.13376
765.471	17400.22173
765.662	17177.47117
765.853	17410.34762
766.043	17136.97487
766.234	17209.86903
766.425	16968.92715
766.615	17386.04561
766.806	17410.34762
766.997	17114.7024
767.187	17078.25725
767.378	17712.13564
767.569	17045.86232
767.759	17173.42149
767.95	16891.99582
768.141	17060.03502
768.331	16946.65717
768.522	16956.77985
768.712	17213.91882
768.903	17258.46722
769.093	16928.43651
769.284	16691.58653
769.474	16707.78034
769.665	16598.475
769.855	16885.92245
770.046	16877.82466
770.236	16209.88348
770.426	16685.51389
770.617	16412.2658
770.807	16665.27191
770.998	16687.53811
771.188	16628.83693
771.378	16464.88835
771.569	16717.90155
771.759	16353.573
771.949	16464.88835
772.139	16586.33037
772.33	16284.7628
772.52	16412.2658
772.71	16768.50847
772.9	16300.95324
773.09	16555.96914
773.281	16325.23913
773.471	16373.81172
773.661	16098.58066
773.851	16017.63614
774.041	15803.14369
774.231	16224.04965
774.421	15831.47209
774.611	16082.39157
774.802	15920.50571
774.992	15975.14119
775.182	15837.54249
775.372	15861.8242
775.562	16015.61255
775.752	16155.2433
775.942	15744.46412
776.131	15861.8242
776.321	15724.22998
776.511	15442.98409
776.701	15882.05909
776.891	15801.12025
777.081	15712.08954
777.271	15768.74521
777.461	15760.6515
777.651	15687.80878
777.84	15910.38813
778.03	15388.35502
778.22	15285.16751
778.41	15552.24342
778.599	15691.85556
778.789	15841.58943
778.979	15786.95614
779.169	15839.56596
779.358	15436.91418
779.548	15542.12674
779.738	15434.89088
779.927	15262.91147
780.117	15440.96079
780.307	15396.44819
780.496	15586.64027
780.686	15491.54358
780.875	15461.19386
781.065	15321.58654
781.254	14955.37359
781.444	15268.9813
781.633	14785.41535
781.823	14949.30371
782.012	15349.91251
782.202	15301.35373
782.391	15173.8875
782.581	14870.39497
782.77	14542.60821
782.96	15214.35292
783.149	14623.54555
783.338	14941.21054
783.528	14890.62805
783.717	14882.53482
783.906	14765.18193
784.096	14657.94338
784.285	14668.06034
784.474	14661.99017
784.663	14805.6487
784.853	14738.87836
785.042	14829.92863
785.231	14550.70203
785.42	14445.48076
785.61	14696.38768
785.799	14502.13882
785.988	14799.5787
786.177	14554.74893
786.366	14544.63167
786.555	14625.56896
786.744	14496.06836
786.933	14524.39705
787.122	14821.83533
787.312	14712.57465
787.501	14421.19839
787.69	14485.95091
787.879	14334.18473
788.068	13929.42294
788.257	14113.60033
788.445	13911.20646
788.634	14235.02579
788.823	14180.38525
789.012	14208.71756
789.201	14141.93361
789.39	13977.99916
789.579	13895.01386
789.768	14269.42836
789.957	14158.12386
790.145	14328.1139
790.334	14275.49935
790.523	14101.45736
790.712	14040.74132
790.9	14123.71941
791.089	13502.28402
791.278	13710.81017
791.467	13785.70912
791.655	14233.00209
791.844	14020.50217
792.033	13797.85451
792.221	13733.07787
792.41	13882.8693
792.599	13401.04395
792.787	13595.41671
792.976	13820.12078
793.164	13854.53159
793.353	13775.58789
793.541	13901.08611
793.73	13336.24516
793.918	13631.85792
794.107	13093.21065
794.295	13587.31851
794.484	13392.94433
794.672	13554.92516
794.861	12921.02016
795.049	13419.26788
795.238	13239.03901
795.426	13305.86929
795.614	13143.8482
795.803	13113.46602
795.991	12935.20194
796.179	13064.85233
796.368	13101.31286
796.556	13336.24516
796.744	13062.8267
796.932	13125.61902
797.121	13200.55881
797.309	13093.21065
797.497	12983.82326
797.685	13336.24516
797.874	13010.15858
798.062	12870.36883
798.25	12918.99417
798.438	13230.93805
798.626	13085.10837
798.814	13352.44525
799.002	13054.72413
799.19	12998.00392
799.378	13119.54254
799.566	12983.82326
799.755	13010.15858
799.943	13068.90358
800.131	13103.3384
800.318	13168.15319
800.506	12914.94217
800.694	12791.34601
800.882	12821.74039
801.07	13388.89449
801.258	12981.79743
801.446	13350.42025
801.634	13081.0572
801.822	12957.48708
802.01	13044.5958
802.197	13111.44051
802.385	12781.21427
802.573	13060.80106
802.761	13158.02619
802.949	13133.72092
803.136	12833.8978
803.324	12870.36883
803.512	12878.47327
803.699	12793.37234
803.887	13135.74639
804.075	13089.15952
804.262	13162.077
804.45	13135.74639
804.638	13178.28007
804.825	13267.39182
805.013	13299.794
805.201	13198.5335
805.388	12987.8749
805.576	13222.83702
805.763	12758.92394
805.951	12736.63292
806.138	13056.74978
806.326	13032.44165
806.513	12890.62976
806.701	12801.47761
806.888	12878.47327
807.075	12949.38346
807.263	12710.28809
807.45	12655.56873
807.638	12588.68357
807.825	12829.84535
808.012	12538.00851
808.2	12758.92394
808.387	12888.60369
808.574	13208.66004
808.761	13034.46736
808.949	13060.80106
809.136	12726.50041
809.323	13182.33079
809.51	12556.25198
809.698	12886.57762
809.885	12844.02882
810.072	12799.4513
810.259	13014.21009
810.446	12995.97813
810.633	12904.8121
810.82	13153.97536
811.008	12754.87108
811.195	13103.3384
811.382	13024.33878
811.569	12902.78606
811.756	12773.10877
811.943	13113.46602
812.13	13079.03161
812.317	12987.8749
812.504	12890.62976
812.691	12987.8749
812.878	12906.83812
813.064	13020.28732
813.251	12769.05599
813.438	13032.44165
813.625	12677.86232
813.812	12912.91617
813.999	12860.23817
814.186	12799.4513
814.372	12633.27441
814.559	12837.95022
814.746	12590.71049
814.933	12833.8978
815.12	12339.32324
815.306	12355.54486
815.493	12495.43841
815.68	12535.98143
815.866	12554.22496
816.053	12795.39867
816.24	12604.89876
816.426	12874.42106
816.613	12797.42499
816.799	12914.94217
816.986	12754.87108
817.173	12886.57762
817.359	12882.52545
817.546	12892.65583
817.732	12442.72862
817.919	12815.66162
818.105	13074.98041
818.292	12773.10877
818.478	12720.42083
818.665	12835.92401
818.851	12704.20837
819.037	12667.72896
819.224	12631.24762
819.41	12529.90014
819.597	12450.8381
819.783	12491.38397
819.969	12600.845
820.156	12578.54887
820.342	12625.16721
820.528	12754.87108
820.714	12400.15206
820.901	12868.34271
821.087	12501.52003
821.273	12750.81819
821.459	12460.97482
821.646	12837.95022
821.832	12657.59545
822.018	12635.3012
822.204	12375.82127
822.39	12552.19792
822.576	11964.06831
822.762	12087.82956
822.948	12260.23644
823.134	12306.87867
823.32	11927.54293
823.507	12398.12453
823.693	12193.30835
823.879	12477.19321
824.065	12270.37637
824.25	12179.11046
824.436	12217.64675
824.622	12262.26444
824.808	12187.22358
824.994	12323.10118
825.18	12310.93433
825.366	12347.43411
825.552	12246.04023
825.738	12310.93433
825.923	11990.44612
826.109	12347.43411
826.295	12024.93816
826.481	12140.57149
826.667	12387.98679
826.852	12422.45443
827.038	12225.75932
827.224	12248.06828
827.409	12059.42791
827.595	11949.86431
827.781	11842.30671
827.966	12016.82259
828.152	11757.05561
828.338	11643.36355
828.523	11560.10679
828.709	11683.97106
828.894	11734.72543
829.08	11649.45491
829.266	11663.66775
829.451	11919.42583
829.637	11393.54586
829.822	11618.99731
830.008	11434.17644
830.193	11903.19122
830.378	11381.35592
830.564	11598.69111
830.749	11547.92157
830.935	11586.50695
831.12	11342.75209
831.305	11590.56837
831.491	11318.36887
831.676	11608.84432
831.861	11220.82135
832.047	11551.98334
832.232	11409.79856
832.417	11489.02157
832.602	11273.66251
832.788	11740.81558
832.973	11503.23954
833.158	11710.36402
833.343	11391.51423
833.528	11413.86164
833.714	11273.66251
833.899	11415.89316
834.084	11041.92151
834.269	11127.31585
834.454	10641.11508
834.639	10805.96845
834.824	10830.38454
835.009	11208.62624
835.194	10962.60945
835.379	11348.84767
835.564	10832.41913
835.749	11080.55465
835.934	10812.07263
836.119	10907.69112
836.304	10539.31376
836.489	10950.40609
836.674	11074.45494
836.859	10742.88571
837.044	10700.14573
837.228	10759.16622
837.413	10694.03959
837.598	10832.41913
837.783	10553.56782
837.968	10734.74517
838.152	10486.36466
838.337	10608.54204
838.522	10298.93614
838.707	10720.49876
838.891	10368.21614
839.076	10539.31376
839.261	10239.83215
839.445	10669.61392
839.63	10388.5897
839.815	10421.18467
839.999	10496.54785
840.184	10976.84619
840.368	10694.03959
840.553	10738.81546
840.737	10417.11048
840.922	10433.40693
841.106	10215.37199
841.291	10282.63272
841.475	10362.10381
841.66	10284.6707
841.844	10262.25224
842.029	10372.29095
842.213	10276.51872
842.397	10150.13524
842.582	10101.19836
842.766	10164.40698
842.951	9793.11452
843.135	10135.86281
843.319	9776.78283
843.504	10042.05549
843.688	10050.21384
843.872	10148.09636
844.056	10062.45093
844.241	10170.52324
844.425	9784.9488
844.609	9770.6582
844.793	9729.82382
844.977	9862.51351
845.161	9817.61026
845.346	9933.93575
845.53	9846.18589
845.714	10072.64812
845.898	9778.82434
846.082	9874.75861
846.266	9801.28001
846.45	9833.93955
846.634	9460.16146
846.818	9872.71779
847.002	9425.41212
847.186	9854.34982
847.37	9574.5971
847.554	9819.65147
847.738	9744.11654
847.922	9929.85496
848.106	9842.10383
848.29	9835.98064
848.473	9682.85674
848.657	9368.16768
848.841	9329.31592
849.025	9574.5971
849.209	9372.25699
849.392	9327.27093
849.576	9335.4508
849.76	9192.26443
849.944	8962.9925
850.127	9562.33852
850.311	9359.98886
850.495	9276.14068
850.678	9278.18609
850.862	9560.29537
851.046	9130.87353
851.229	9102.21917
851.413	9200.44873
851.596	9509.21143
851.78	9372.25699
851.964	9372.25699
852.147	9048.99496
852.331	9368.16768
852.514	9010.09291
852.698	8985.51994
852.881	8747.84902
853.065	8635.07473
853.248	8587.89791
853.431	8979.37631
853.615	8594.05197
853.798	8985.51994
853.982	8550.97
854.165	8704.79634
854.348	8649.43093
854.532	8581.74368
854.715	8776.54633
854.898	8633.02377
855.081	8499.67108
855.265	8901.54311
855.448	8509.93181
855.631	8573.53778
855.814	8347.75626
855.997	8415.51508
856.181	8415.51508
856.364	8587.89791
856.547	8444.25489
856.73	8368.29146
856.913	8218.33954
857.096	8553.02171
857.279	8409.35605
857.462	8606.35958
857.645	8419.62099
857.828	8263.54153
858.011	8162.85125
858.194	8325.16529
858.377	7817.26002
858.56	8337.48793
858.743	8179.29374
858.926	8212.17489
859.109	7916.05928
859.292	8129.96245
859.475	8060.0567
859.658	8312.84195
859.841	8206.01006
860.023	7957.21161
860.206	7879.01514
860.389	8043.6049
860.572	7726.65191
860.755	7930.46353
860.937	7722.53239
861.12	7767.84244
861.303	7825.49512
861.486	8066.22579
861.668	7992.18465
861.851	7885.18963
862.034	7400.94791
862.216	7625.69948
862.399	7570.05084
862.581	7668.97103
862.764	7623.63869
862.947	7671.03134
863.129	7537.06652
863.312	7759.605
863.494	7726.65191
863.677	7969.55571
863.859	7809.02459
864.042	7753.42671
864.224	7382.37897
864.406	7506.13873
864.589	7355.55405
864.771	7328.72544
864.954	7070.56782
865.136	7244.08783
865.318	7120.16098
865.501	7310.14961
865.683	6983.74872
865.865	7382.37897
866.048	7101.56505
866.23	7277.12154
866.412	7068.50116
866.594	7289.50772
866.777	7122.22709
866.959	7487.57973
867.141	6977.54584
867.323	7023.02894
867.505	7136.68918
867.687	6942.39234
867.869	6961.00383
868.052	7037.49855
868.234	7025.09609
868.416	7202.78775
868.598	6826.54631
868.78	7136.68918
868.962	6909.30073
869.144	7004.42353
869.326	6917.57418
869.508	7054.0339
869.69	6743.75545
869.872	7215.1787
870.054	7134.62324
870.236	7182.13439
870.417	7027.16322
870.599	7101.56505
870.781	6720.98154
870.963	6789.29494
871.145	6925.84726
871.327	6934.11998
871.508	6766.52658
871.69	6741.68521
871.872	6720.98154
872.054	7031.29742
872.235	6499.30832
872.417	6778.94603
872.599	6704.41696
872.78	6820.33826
872.962	6718.91105
873.144	6735.47435
873.325	6536.61764
873.507	6544.90758
873.689	6491.01633
873.87	6619.50041
874.052	6617.42879
874.233	6743.75545
874.415	6495.16237
874.596	6760.31654
874.778	6505.52706
874.959	6561.48635
875.141	6428.81463
875.322	6776.87618
875.503	6698.20487
875.685	6958.93598
875.866	6573.91946
876.048	6735.47435
876.229	6584.27975
876.41	6602.92681
876.592	6449.55086
876.773	6762.38658
876.954	6296.04761
877.136	6785.15545
877.317	6604.99859
877.498	6733.40402
877.679	6501.38125
877.86	6712.69944
878.042	6472.35802
878.223	6607.07035
878.404	6594.63946
878.585	6781.01586
878.766	6329.24833
878.947	6700.27559
879.128	6339.62233
879.309	6420.51949
879.49	6393.55771
879.672	6555.26949
879.853	6453.69782
880.034	6604.99859
880.215	6447.47734
880.396	6627.78665
880.576	6372.8152
880.757	6625.71513
880.938	6362.44307
881.119	6658.85679
881.3	6414.29789
881.481	6685.78005
881.662	6739.61494
881.843	6907.23232
882.023	6809.99106
882.204	6944.46038
882.385	6437.1094
882.566	6847.23833
882.747	6403.92809
882.927	6727.19288
883.108	6424.66711
883.289	6677.49639
883.469	6607.07035
883.65	6747.89586
883.831	6563.5586
884.011	6983.74872
884.192	6911.36913
884.373	6898.95842
884.553	6702.34629
884.734	6623.64358
884.914	6704.41696
885.095	6884.47822
885.275	6551.12479
885.456	6892.75276
885.636	6766.52658
885.817	6954.80021
885.997	6571.84733
886.178	6886.54689
886.358	6611.21379
886.538	6758.24649
886.719	6685.78005
886.899	6901.02693
887.08	6805.85202
887.26	6826.54631
887.44	6718.91105
887.621	6743.75545
887.801	6437.1094
887.981	6783.08566
888.161	6689.92175
888.342	6629.85816
888.522	6671.2834
888.702	6677.49639
888.882	6739.61494
889.062	6729.26328
889.242	6648.50065
889.423	6768.59654
889.603	6718.91105
889.783	6727.19288
889.963	6399.78001
890.143	6913.4375
890.323	6642.2867
890.503	6729.26328
890.683	6646.42936
890.863	6853.44549
891.043	6648.50065
891.223	6917.57418
891.403	6586.35174
891.583	7004.42353
891.763	6439.18304
891.943	6660.92795
892.122	6366.59199
892.302	6667.14129
892.482	6569.77518
892.662	6553.19715
892.842	6159.0313
893.022	6283.5958
893.201	6271.14315
893.381	6569.77518
893.561	6617.42879
893.741	6685.78005
893.92	6561.48635
894.1	6557.3418
894.28	6146.5702
894.459	6248.31109
894.639	6246.23531
894.819	6488.94328
894.998	6105.02711
895.178	6314.72375
895.357	6200.56218
895.537	6412.22398
895.716	6478.57767
895.896	6408.07608
896.075	6264.9165
896.255	6685.78005
896.434	6165.26153
896.614	6627.78665
896.793	6040.61673
896.973	6366.59199
897.152	6096.71736
897.331	6443.33023
897.511	6177.72136
897.69	6271.14315
897.87	5965.78918
898.049	6063.47461
898.228	5838.9283
898.407	5957.47312
898.587	5714.06144
898.766	5938.76061
898.945	5865.97158
899.124	5805.63878
899.304	5620.35555
899.483	5855.57079
899.662	5691.15997
899.841	5745.28612
900.02	5555.77482
900.199	5655.76117
900.378	5355.63936
900.557	5543.27271
900.737	5407.77883
900.916	5747.36758
901.095	5503.67709
901.274	5707.81587
901.453	5232.53214
901.632	5414.03458
901.811	5199.13311
901.989	5324.34864
902.168	5374.41126
902.347	5441.14039
902.526	5055.03153
902.705	5069.65557
902.884	4871.09009
903.063	5313.91723
903.242	5238.7938
903.42	5503.67709
903.599	5313.91723
903.778	5159.46401
903.957	4871.09009
904.135	5165.72811
904.314	4818.8016
904.493	4862.72489
904.672	4596.9411
904.85	4668.13147
905.029	4439.81262
905.207	4655.57034
905.386	4611.60005
905.565	4709.99604
905.743	4488.0119
905.922	4789.51383
906.1	4521.53496
906.279	4563.43081
906.457	4362.25036
906.636	4540.38919
906.814	4209.13533
906.993	4441.90848
907.171	4108.39517
907.35	4288.85332
907.528	4095.79925
907.707	4116.79203
907.885	3847.92926
908.063	4318.21531
908.242	3997.1054
908.42	4179.7578
908.598	3957.19501
908.777	4177.65924
908.955	3925.68163
909.133	4112.59364
909.311	3803.78741
909.49	3868.94611
909.668	3786.96918
909.846	4022.30816
910.024	3957.19501
910.202	4112.59364
910.38	3982.40243
910.559	4123.08945
910.737	4112.59364
910.915	4274.17075
911.093	3871.04769
911.271	4228.01869
911.449	4072.70478
911.627	4118.89119
911.805	3925.68163
911.983	4020.20804
912.161	4083.20258
912.339	4192.34867
912.517	4104.19661
912.695	4311.92381
912.872	4024.40826
913.05	4194.44708
913.228	4099.99797
913.406	4162.96878
913.584	3927.78266
913.762	4158.77131
913.939	3780.66203
914.117	4026.50833
914.295	4079.00352
914.473	4246.90032
914.65	4190.25025
914.828	4293.04815
915.006	3894.1637
915.184	4215.42997
915.361	3822.70641
915.539	4131.48573
915.716	3889.96097
915.894	3866.84452
916.072	3650.27502
916.249	3948.79189
916.427	3795.37846
916.604	4102.0973
916.782	3654.4822
916.959	4137.78272
917.137	3850.03103
917.314	3992.90466
917.492	3839.52196
917.669	4070.60516
917.847	3753.32897
918.024	3694.44664
918.201	3595.57477
918.379	3847.92926
918.556	3696.54984
918.733	3654.4822
918.911	3351.37622
919.088	3559.80238
919.265	3393.49662
919.442	3662.89634
919.62	3667.1033
919.797	3885.75816
919.974	3559.80238
920.151	3658.68931
920.328	3448.24258
920.506	3717.58079
920.683	3502.97642
920.86	3372.43729
921.037	3252.36609
921.214	3279.75564
921.391	3007.84469
921.568	3382.96717
921.745	3258.687
921.922	3462.97981
922.099	3420.8711
922.276	3361.90697
922.453	3121.70043
922.63	3427.18786
922.807	2953.00928
922.984	3182.82608
923.161	3018.38878
923.338	3309.24887
923.514	3031.0412
923.691	3134.34823
923.868	2883.39609
924.045	3182.82608
924.222	2906.60225
924.399	3182.82608
924.575	2834.86853
924.752	3246.04502
924.929	2902.38308
925.105	2915.04042
925.282	2704.01881
925.459	2784.22319
925.635	2758.89757
925.812	3012.06237
925.989	2720.90553
926.165	2862.29807
926.342	2623.79568
926.518	2771.56063
926.695	2625.90704
926.871	2742.01275
927.048	2609.01576
927.224	2454.84783
927.401	2220.3194
927.577	2368.23445
927.754	2446.39853
927.93	2389.36128
928.107	2306.96098
928.283	2473.85812
928.459	2321.75188
928.636	2524.5478
928.812	2425.27452
928.988	2380.91067
929.165	2433.72425
929.341	2290.05653
929.517	2245.67949
929.693	2475.97032
929.87	2051.2218
930.046	2334.42942
930.222	2186.504
930.398	2137.89062
930.574	2211.86576
930.751	2374.57261
930.927	2148.45911
931.103	2383.02334
931.279	2178.04981
931.455	2148.45911
931.631	1915.91093
931.807	2093.50084
931.983	1702.32962
932.159	2025.85303
932.335	1738.28187
932.511	1856.70491
932.687	1715.01876
932.863	1672.72121
933.039	1681.18081
933.215	2137.89062
933.391	1824.98578
933.566	1795.38034
933.742	1763.65931
933.918	1700.21475
934.094	1594.46798
934.27	1590.238
934.445	1528.90252
934.621	1700.21475
934.797	1452.76085
934.973	1399.88461
935.148	1404.1147
935.324	1361.81396
935.5	1226.45595
935.675	1232.80063
935.851	995.95755
936.027	1163.01073
936.202	1118.60115
936.378	1088.99587
936.553	1019.21607
936.729	1014.98719
936.904	1004.41511
937.08	1050.93341
937.255	799.35276
937.431	883.90545
937.606	569.03042
937.782	761.30888
937.957	638.7464
938.133	626.06974
938.308	524.6732
938.483	602.83037
938.659	607.0556
938.834	659.87514
939.009	486.65768
939.185	463.42832
939.36	469.76342
939.535	503.55289
939.71	408.52999
939.886	526.78531
940.061	343.08867
940.236	507.77683
940.411	372.64081
940.586	461.31665
940.761	385.30703
940.937	442.31232
941.112	378.97385
941.287	454.98174
941.462	302.98769
941.637	309.31899
941.812	309.31899
941.987	355.75346
942.162	321.98209
942.337	300.87729
942.512	267.11341
942.687	353.64262
942.862	340.97794
943.037	300.87729
943.212	258.67319
943.386	199.6003
943.561	193.27198
943.736	233.35436
943.911	324.09267
944.086	267.11341
944.26	218.58633
944.435	208.03833
944.61	224.91537
944.785	241.79366
944.959	296.65654
945.134	235.46415
945.309	201.70978
945.483	353.64262
945.658	218.58633
945.833	256.56318
946.007	243.90353
946.182	216.47669
946.357	199.6003
946.531	227.02509
946.706	218.58633
946.88	227.02509
947.055	157.41499
947.229	241.79366
947.404	174.28813
947.578	269.22351
947.752	241.79366
947.927	275.55393
948.101	250.23327
948.276	290.32557
948.45	208.03833
948.624	275.55393
948.799	260.78321
948.973	248.12334
949.147	248.12334
949.321	355.75346
949.496	199.6003
949.67	269.22351
949.844	250.23327
950.018	229.13482
950.193	235.46415
950.367	258.67319
950.541	205.9288
950.715	237.57397
950.889	161.63315
951.063	317.76099
951.237	317.76099
951.411	343.08867
951.585	355.75346
951.759	419.08653
951.933	239.6838
952.107	307.20854
952.281	286.10501
952.455	321.98209
952.629	317.76099
952.803	328.31388
952.977	243.90353
953.151	292.43587
953.325	345.19943
953.499	317.76099
953.672	271.33363
953.846	355.75346
954.02	275.55393
954.194	376.86282
954.368	224.91537
954.541	258.67319
954.715	343.08867
954.889	334.64583
955.062	235.46415
955.236	324.09267
955.41	233.35436
955.583	262.89326
955.757	279.77431
955.93	283.99475
956.104	283.99475
956.278	292.43587
956.451	300.87729
956.625	288.21528
956.798	302.98769
956.972	246.01343
957.145	203.81928
957.319	309.31899
957.492	258.67319
957.665	275.55393
957.839	321.98209
958.012	252.34322
958.185	239.6838
958.359	269.22351
958.532	368.41887
958.705	292.43587
958.879	267.11341
959.052	334.64583
959.225	267.11341
959.398	250.23327
959.572	336.75651
959.745	338.86722
959.918	262.89326
960.091	321.98209
960.264	224.91537
960.438	256.56318
960.611	224.91537
960.784	233.35436
960.957	307.20854
961.13	317.76099
961.303	254.45319
961.476	296.65654
961.649	184.83451
961.822	311.42946
961.995	237.57397
962.168	195.3814
962.341	191.16258
962.514	254.45319
962.686	163.74226
962.859	186.94385
963.032	191.16258
963.205	277.66411
963.378	210.14789
963.551	241.79366
963.723	241.79366
963.896	227.02509
964.069	254.45319
964.242	218.58633
964.414	305.0981
964.587	220.69599
964.76	224.91537
964.932	144.76102
965.105	250.23327
965.278	237.57397
965.45	205.9288
965.623	271.33363
965.795	235.46415
965.968	267.11341
966.14	258.67319
966.313	305.0981
966.485	281.88452
966.658	184.83451
966.83	227.02509
967.003	277.66411
967.175	300.87729
967.348	237.57397
967.52	243.90353
967.692	260.78321
967.865	224.91537
968.037	203.81928
968.209	254.45319
968.382	220.69599
968.554	182.72519
968.726	262.89326
968.898	208.03833
969.071	199.6003
969.243	210.14789
969.415	292.43587
969.587	123.67278
969.759	203.81928
969.932	203.81928
970.104	241.79366
970.276	142.6521
970.448	178.50662
970.62	165.85139
970.792	106.80373
970.964	165.85139
971.136	193.27198
971.308	134.21663
971.48	165.85139
971.652	89.9361
971.824	176.39736
971.996	235.46415
972.168	248.12334
972.339	216.47669
972.511	167.96055
972.683	191.16258
972.855	208.03833
973.027	140.5432
973.199	191.16258
973.37	174.28813
973.542	142.6521
973.714	148.97893
973.886	167.96055
974.057	197.49084
974.229	142.6521
974.401	144.76102
974.572	208.03833
974.744	157.41499
974.915	178.50662
975.087	30.91075
975.259	182.72519
975.43	182.72519
975.602	208.03833
975.773	167.96055
975.945	153.19692
976.116	132.10782
976.288	136.32547
976.459	208.03833
976.63	159.52406
976.802	201.70978
976.973	220.69599
977.145	157.41499
977.316	172.17891
977.487	165.85139
977.659	191.16258
977.83	208.03833
978.001	224.91537
978.172	106.80373
978.344	56.20513
978.515	148.97893
978.686	108.91229
978.857	195.3814
979.028	125.7815
979.2	83.6111
979.371	49.88122
979.542	56.20513
979.713	75.17808
979.884	140.5432
980.055	81.50281
980.226	134.21663
980.397	102.58669
980.568	64.63732
980.739	155.30595
980.91	106.80373
981.081	85.71941
981.252	85.71941
981.423	106.80373
981.594	142.6521
981.765	49.88122
981.936	115.23808
982.106	142.6521
982.277	100.4782
982.448	89.9361
982.619	159.52406
982.79	64.63732
982.96	140.5432
983.131	41.44967
983.302	117.34672
983.472	64.63732
983.643	106.80373
983.814	75.17808
983.984	89.9361
984.155	56.20513
984.326	121.56407
984.496	140.5432
984.667	115.23808
984.837	148.97893
985.008	35.12624
985.178	102.58669
985.349	89.9361
985.519	77.2863
985.69	115.23808
985.86	64.63732
986.031	148.97893
986.201	98.36974
986.371	64.63732
986.542	56.20513
986.712	14.04971
986.882	100.4782
987.053	113.12946
987.223	77.2863
987.393	28.80304
987.563	62.52924
987.734	89.9361
987.904	157.41499
988.074	73.06989
988.244	89.9361
988.414	98.36974
988.585	83.6111
988.755	47.77329
988.925	47.77329
989.095	89.9361
989.265	47.77329
989.435	58.31314
989.605	148.97893
989.775	100.4782
989.945	30.91075
990.115	77.2863
990.285	26.69535
990.455	33.01848
990.625	1.40492
990.795	49.88122
990.965	73.06989
991.134	92.04447
991.304	14.04971
991.474	41.44967
991.644	66.74543
991.814	64.63732
991.984	41.44967
992.153	73.06989
992.323	56.20513
992.493	94.15287
992.662	30.91075
992.832	5.61975
993.002	111.02086
993.171	47.77329
993.341	49.88122
993.511	47.77329
993.68	60.42118
993.85	20.37242
994.019	104.6952
994.189	51.98916
994.358	33.01848
994.528	92.04447
994.697	9.83468
994.867	-15.45344
995.036	33.01848
995.206	-30.20322
995.375	56.20513
995.544	51.98916
995.714	73.06989
995.883	-17.56062
996.052	22.48004
996.222	43.55752
996.391	56.20513
996.56	-51.27223
996.73	83.6111
996.899	41.44967
997.068	14.04971
997.237	125.7815
997.406	66.74543
997.576	49.88122
997.745	49.88122
997.914	66.74543
998.083	33.01848
998.252	33.01848
998.421	102.58669
998.59	49.88122
998.759	11.94218
998.928	81.50281
999.097	33.01848
999.266	56.20513
999.435	22.48004
999.604	60.42118
999.773	9.83468
999.942	64.63732
1000.111	16.15725
1000.28	35.12624
1000.448	-4.91714
1000.617	75.17808
1000.786	14.04971
1000.955	100.4782
1001.124	41.44967
1001.292	54.09713
1001.461	73.06989
1001.63	106.80373
1001.798	39.34183
1001.967	35.12624
1002.136	3.51233
1002.304	51.98916
1002.473	98.36974
1002.642	73.06989
1002.81	51.98916
1002.979	24.58768
1003.147	22.48004
1003.316	68.85356
1003.484	24.58768
1003.653	60.42118
1003.821	100.4782
1003.99	-28.09618
1004.158	75.17808
1004.327	58.31314
1004.495	47.77329
1004.663	35.12624
1004.832	-23.88203
1005	92.04447
1005.168	30.91075
1005.337	117.34672
1005.505	94.15287
1005.673	-17.56062
1005.842	22.48004
1006.01	140.5432
1006.178	-21.77492
1006.346	35.12624
1006.514	-28.09618
1006.683	43.55752
1006.851	-49.16544
1007.019	-7.02445
1007.187	30.91075
1007.355	-19.66778
1007.523	30.91075
1007.691	79.39455
1007.859	64.63732
1008.027	-17.56062
1008.195	-9.13173
1008.363	-34.41722
1008.531	1.40492
1008.699	49.88122
1008.867	-47.05863
1009.035	-34.41722
1009.203	49.88122
1009.37	56.20513
1009.538	35.12624
1009.706	9.83468
1009.874	20.37242
1010.042	-7.02445
1010.209	39.34183
1010.377	16.15725
1010.545	54.09713
1010.713	132.10782
1010.88	-15.45344
1011.048	30.91075
1011.216	85.71941
1011.383	14.04971
1011.551	68.85356
1011.718	66.74543
1011.886	85.71941
1012.054	30.91075
1012.221	20.37242
1012.389	33.01848
1012.556	73.06989
1012.724	68.85356
1012.891	-23.88203
1013.058	16.15725
1013.226	7.72721
1013.393	47.77329
1013.561	83.6111
1013.728	56.20513
1013.895	47.77329
1014.063	108.91229
1014.23	33.01848
1014.397	-21.77492
1014.565	35.12624
1014.732	47.77329
1014.899	16.15725
1015.066	7.72721
1015.233	-0.70246
1015.401	-44.95179
1015.568	39.34183
1015.735	64.63732
1015.902	-28.09618
1016.069	54.09713
1016.236	-23.88203
1016.403	-36.52418
1016.57	108.91229
1016.737	24.58768
1016.904	51.98916
1017.071	-7.02445
1017.238	58.31314
1017.405	-32.31023
1017.572	-23.88203
1017.739	26.69535
1017.906	7.72721
1018.073	33.01848
1018.24	60.42118
1018.407	37.23403
1018.573	54.09713
1018.74	39.34183
1018.907	24.58768
1019.074	43.55752
1019.241	-25.98912
1019.407	-7.02445
1019.574	56.20513
1019.741	-7.02445
1019.907	30.91075
1020.074	16.15725
1020.241	-0.70246
1020.407	5.61975
1020.574	14.04971
1020.74	-34.41722
1020.907	16.15725
1021.073	-7.02445
1021.24	26.69535
1021.406	39.34183
1021.573	43.55752
1021.739	16.15725
1021.906	30.91075
1022.072	20.37242
1022.239	-63.91243
1022.405	24.58768
1022.571	-23.88203
1022.738	-66.01904
1022.904	100.4782
1023.07	47.77329
1023.237	56.20513
1023.403	30.91075
1023.569	30.91075
1023.735	-34.41722
1023.902	-9.13173
1024.068	73.06989
1024.234	1.40492
1024.4	47.77329
1024.566	54.09713
1024.732	41.44967
1024.898	1.40492
1025.065	-9.13173
1025.231	43.55752
1025.397	-28.09618
1025.563	47.77329
1025.729	-0.70246
1025.895	-4.91714
1026.061	85.71941
1026.227	14.04971
1026.392	54.09713
1026.558	-19.66778
1026.724	39.34183
1026.89	68.85356
1027.056	-19.66778
1027.222	30.91075
1027.388	-23.88203
1027.553	54.09713
1027.719	106.80373
1027.885	-44.95179
1028.051	-11.23899
1028.216	73.06989
1028.382	14.04971
1028.548	85.71941
1028.713	-34.41722
1028.879	-9.13173
1029.045	-25.98912
1029.21	47.77329
1029.376	30.91075
1029.541	22.48004
1029.707	22.48004
1029.873	1.40492
1030.038	83.6111
1030.204	-11.23899
1030.369	33.01848
1030.534	9.83468
1030.7	1.40492
1030.865	117.34672
1031.031	-2.80981
1031.196	-42.84492
1031.361	70.96171
1031.527	22.48004
1031.692	22.48004
1031.857	75.17808
1032.023	14.04971
1032.188	77.2863
1032.353	108.91229
1032.518	47.77329
1032.684	33.01848
1032.849	-9.13173
1033.014	56.20513
1033.179	7.72721
1033.344	58.31314
1033.509	-28.09618
1033.674	-25.98912
1033.839	-15.45344
1034.004	30.91075
1034.17	-11.23899
1034.335	-2.80981
1034.5	-34.41722
1034.664	-36.52418
1034.829	123.67278
1034.994	-32.31023
1035.159	1.40492
1035.324	18.26482
1035.489	14.04971
1035.654	30.91075
1035.819	5.61975
1035.984	-34.41722
1036.148	30.91075
1036.313	-23.88203
1036.478	1.40492
1036.643	47.77329
1036.807	14.04971
1036.972	-19.66778
1037.137	5.61975
1037.301	66.74543
1037.466	-19.66778
1037.631	-11.23899
1037.795	22.48004
1037.96	43.55752
1038.124	35.12624
1038.289	18.26482
1038.454	28.80304
1038.618	30.91075
1038.783	51.98916
1038.947	49.88122
1039.111	79.39455
1039.276	70.96171
1039.44	-44.95179
1039.605	-19.66778
1039.769	20.37242
1039.933	-7.02445
1040.098	-7.02445
1040.262	26.69535
1040.426	33.01848
1040.591	30.91075
1040.755	-17.56062
1040.919	24.58768
1041.083	14.04971
1041.248	-7.02445
1041.412	47.77329
1041.576	89.9361
1041.74	22.48004
1041.904	16.15725
1042.068	26.69535
1042.232	7.72721
1042.397	-74.44523
1042.561	49.88122
1042.725	35.12624
1042.889	5.61975
1043.053	-32.31023
1043.217	-9.13173
1043.381	-15.45344
1043.544	-72.33872
1043.708	-11.23899
1043.872	14.04971
1044.036	41.44967
1044.2	-25.98912
1044.364	18.26482
1044.528	-53.37899
1044.691	-70.23219
1044.855	-2.80981
1045.019	14.04971
1045.183	49.88122
1045.346	-32.31023
1045.51	1.40492
1045.674	26.69535
1045.837	20.37242
1046.001	-49.16544
1046.165	5.61975
1046.328	26.69535
1046.492	56.20513
1046.655	-32.31023
1046.819	92.04447
1046.983	85.71941
1047.146	-38.63112
1047.31	-61.80579
1047.473	39.34183
1047.636	16.15725
1047.8	-25.98912
1047.963	-11.23899
1048.127	49.88122
1048.29	-19.66778
