Data from mixed_try1_USB4F045381__26__00048.txt Node

Date: Thu Apr 03 19:34:29 EDT 2025
User: mmckonesweet
Spectrometer: USB4F04538
Trigger mode: 4
Integration Time (sec): 2.700000E-3
Scans to average: 1
Electric dark correction enabled: true
Nonlinearity correction enabled: true
Boxcar width: 0
XAxis mode: Wavelengths
Number of Pixels in Spectrum: 3648
>>>>>Begin Spectral Data<<<<<
345.52	22.48004
345.736	22.48004
345.952	22.48004
346.168	-19.66778
346.384	-49.16544
346.6	77.2863
346.816	-4.91714
347.032	-36.52418
347.248	-95.5089
347.464	51.98916
347.68	-15.45344
347.896	-42.84492
348.112	1.40492
348.328	35.12624
348.544	28.80304
348.76	-4.91714
348.975	5.61975
349.191	43.55752
349.407	70.96171
349.623	43.55752
349.839	35.12624
350.055	-51.27223
350.27	28.80304
350.486	-7.02445
350.702	47.77329
350.918	9.83468
351.133	-44.95179
351.349	-44.95179
351.565	39.34183
351.781	68.85356
351.996	9.83468
352.212	-32.31023
352.428	18.26482
352.644	-49.16544
352.859	5.61975
353.075	3.51233
353.291	-78.65817
353.506	-32.31023
353.722	3.51233
353.938	-23.88203
354.153	-2.80981
354.369	-15.45344
354.584	-44.95179
354.8	18.26482
355.016	-55.48573
355.231	-13.34623
355.447	1.40492
355.662	26.69535
355.878	3.51233
356.093	-139.73407
356.309	-4.91714
356.524	-78.65817
356.74	24.58768
356.955	30.91075
357.171	-36.52418
357.386	-11.23899
357.602	18.26482
357.817	-28.09618
358.033	26.69535
358.248	35.12624
358.464	-7.02445
358.679	43.55752
358.895	-21.77492
359.11	-78.65817
359.325	-49.16544
359.541	49.88122
359.756	-32.31023
359.972	-7.02445
360.187	39.34183
360.402	-23.88203
360.618	-70.23219
360.833	-99.72133
361.048	-23.88203
361.264	-53.37899
361.479	-30.20322
361.694	-53.37899
361.909	-9.13173
362.125	3.51233
362.34	-4.91714
362.555	28.80304
362.77	-19.66778
362.986	-40.73804
363.201	-49.16544
363.416	-4.91714
363.631	5.61975
363.847	79.39455
364.062	-23.88203
364.277	-74.44523
364.492	14.04971
364.707	-47.05863
364.922	-44.95179
365.138	-101.8275
365.353	11.94218
365.568	9.83468
365.783	14.04971
365.998	11.94218
366.213	77.2863
366.428	20.37242
366.643	58.31314
366.858	1.40492
367.073	30.91075
367.288	-44.95179
367.503	-7.02445
367.718	-11.23899
367.933	-28.09618
368.148	-11.23899
368.363	39.34183
368.578	20.37242
368.793	77.2863
369.008	22.48004
369.223	26.69535
369.438	-42.84492
369.653	-11.23899
369.868	26.69535
370.083	45.6654
370.298	-32.31023
370.513	-15.45344
370.728	-49.16544
370.943	26.69535
371.157	-11.23899
371.372	-7.02445
371.587	-34.41722
371.802	-28.09618
372.017	43.55752
372.232	7.72721
372.446	1.40492
372.661	1.40492
372.876	-7.02445
373.091	-4.91714
373.306	-9.13173
373.52	30.91075
373.735	-32.31023
373.95	39.34183
374.165	-7.02445
374.379	45.6654
374.594	-89.19007
374.809	-11.23899
375.023	-49.16544
375.238	14.04971
375.453	121.56407
375.667	-32.31023
375.882	30.91075
376.097	-19.66778
376.311	5.61975
376.526	-82.87101
376.741	33.01848
376.955	9.83468
377.17	-36.52418
377.384	9.83468
377.599	-21.77492
377.813	-40.73804
378.028	-44.95179
378.242	43.55752
378.457	62.52924
378.672	-7.02445
378.886	-32.31023
379.101	24.58768
379.315	-23.88203
379.53	18.26482
379.744	-4.91714
379.958	-19.66778
380.173	1.40492
380.387	62.52924
380.602	-25.98912
380.816	-32.31023
381.031	-40.73804
381.245	-15.45344
381.459	20.37242
381.674	1.40492
381.888	51.98916
382.103	43.55752
382.317	-61.80579
382.531	30.91075
382.746	18.26482
382.96	26.69535
383.174	35.12624
383.388	51.98916
383.603	-95.5089
383.817	49.88122
384.031	-7.02445
384.246	-15.45344
384.46	-44.95179
384.674	-28.09618
384.888	60.42118
385.103	22.48004
385.317	-2.80981
385.531	-61.80579
385.745	5.61975
385.959	11.94218
386.174	20.37242
386.388	-57.59244
386.602	-19.66778
386.816	-55.48573
387.03	-13.34623
387.244	14.04971
387.458	18.26482
387.672	68.85356
387.887	-32.31023
388.101	-2.80981
388.315	-23.88203
388.529	14.04971
388.743	18.26482
388.957	-32.31023
389.171	54.09713
389.385	-40.73804
389.599	35.12624
389.813	106.80373
390.027	-23.88203
390.241	49.88122
390.455	-11.23899
390.669	-7.02445
390.883	14.04971
391.097	33.01848
391.311	9.83468
391.525	7.72721
391.738	-89.19007
391.952	-25.98912
392.166	-7.02445
392.38	-53.37899
392.594	-11.23899
392.808	54.09713
393.022	-7.02445
393.236	54.09713
393.449	-82.87101
393.663	39.34183
393.877	-11.23899
394.091	-72.33872
394.305	-23.88203
394.518	35.12624
394.732	-66.01904
394.946	47.77329
395.16	51.98916
395.373	-9.13173
395.587	-4.91714
395.801	-15.45344
396.015	22.48004
396.228	-4.91714
396.442	-32.31023
396.656	-63.91243
396.869	9.83468
397.083	22.48004
397.297	54.09713
397.51	-15.45344
397.724	-66.01904
397.938	-32.31023
398.151	-0.70246
398.365	43.55752
398.578	18.26482
398.792	-23.88203
399.005	7.72721
399.219	-15.45344
399.433	77.2863
399.646	-19.66778
399.86	11.94218
400.073	30.91075
400.287	47.77329
400.5	-7.02445
400.714	35.12624
400.927	51.98916
401.141	-44.95179
401.354	-97.61513
401.567	-49.16544
401.781	-2.80981
401.994	37.23403
402.208	16.15725
402.421	87.82774
402.635	18.26482
402.848	26.69535
403.061	54.09713
403.275	-47.05863
403.488	18.26482
403.701	18.26482
403.915	18.26482
404.128	68.85356
404.341	-30.20322
404.555	-32.31023
404.768	111.02086
404.981	-0.70246
405.195	-7.02445
405.408	45.6654
405.621	-38.63112
405.834	-15.45344
406.048	11.94218
406.261	-15.45344
406.474	-15.45344
406.687	-11.23899
406.9	-9.13173
407.114	3.51233
407.327	39.34183
407.54	1.40492
407.753	51.98916
407.966	-57.59244
408.179	60.42118
408.392	1.40492
408.605	-25.98912
408.819	41.44967
409.032	9.83468
409.245	18.26482
409.458	30.91075
409.671	11.94218
409.884	-38.63112
410.097	-15.45344
410.31	37.23403
410.523	11.94218
410.736	5.61975
410.949	-15.45344
411.162	18.26482
411.375	-7.02445
411.588	1.40492
411.801	11.94218
412.014	24.58768
412.227	-23.88203
412.44	-36.52418
412.653	3.51233
412.865	-23.88203
413.078	56.20513
413.291	-38.63112
413.504	-32.31023
413.717	37.23403
413.93	-15.45344
414.143	89.9361
414.356	37.23403
414.568	20.37242
414.781	22.48004
414.994	30.91075
415.207	-7.02445
415.42	102.58669
415.632	-7.02445
415.845	-78.65817
416.058	-23.88203
416.271	62.52924
416.483	-21.77492
416.696	62.52924
416.909	18.26482
417.121	64.63732
417.334	11.94218
417.547	60.42118
417.759	5.61975
417.972	22.48004
418.185	9.83468
418.397	-23.88203
418.61	-78.65817
418.823	26.69535
419.035	-2.80981
419.248	45.6654
419.46	20.37242
419.673	-13.34623
419.885	60.42118
420.098	28.80304
420.311	20.37242
420.523	64.63732
420.736	-15.45344
420.948	18.26482
421.161	87.82774
421.373	24.58768
421.586	-30.20322
421.798	125.7815
422.01	1.40492
422.223	51.98916
422.435	33.01848
422.648	3.51233
422.86	-42.84492
423.073	56.20513
423.285	9.83468
423.497	-28.09618
423.71	79.39455
423.922	-19.66778
424.134	56.20513
424.347	-36.52418
424.559	26.69535
424.771	-11.23899
424.984	-7.02445
425.196	-49.16544
425.408	-47.05863
425.621	70.96171
425.833	1.40492
426.045	28.80304
426.257	-9.13173
426.47	7.72721
426.682	-23.88203
426.894	-51.27223
427.106	47.77329
427.318	22.48004
427.531	68.85356
427.743	-63.91243
427.955	-38.63112
428.167	35.12624
428.379	20.37242
428.591	30.91075
428.804	75.17808
429.016	1.40492
429.228	9.83468
429.44	9.83468
429.652	1.40492
429.864	18.26482
430.076	70.96171
430.288	-38.63112
430.5	11.94218
430.712	5.61975
430.924	5.61975
431.136	26.69535
431.348	1.40492
431.56	-47.05863
431.772	14.04971
431.984	-23.88203
432.196	148.97893
432.408	51.98916
432.62	11.94218
432.832	56.20513
433.044	24.58768
433.256	-53.37899
433.468	-40.73804
433.679	-7.02445
433.891	3.51233
434.103	28.80304
434.315	45.6654
434.527	87.82774
434.739	26.69535
434.95	-13.34623
435.162	92.04447
435.374	43.55752
435.586	37.23403
435.798	49.88122
436.009	18.26482
436.221	28.80304
436.433	14.04971
436.645	39.34183
436.856	-36.52418
437.068	26.69535
437.28	-2.80981
437.491	33.01848
437.703	54.09713
437.915	62.52924
438.126	30.91075
438.338	28.80304
438.55	-7.02445
438.761	-2.80981
438.973	-23.88203
439.184	18.26482
439.396	9.83468
439.608	30.91075
439.819	-7.02445
440.031	49.88122
440.242	18.26482
440.454	62.52924
440.665	7.72721
440.877	62.52924
441.088	45.6654
441.3	51.98916
441.511	51.98916
441.723	43.55752
441.934	28.80304
442.146	1.40492
442.357	77.2863
442.569	30.91075
442.78	-11.23899
442.991	62.52924
443.203	43.55752
443.414	-17.56062
443.626	77.2863
443.837	1.40492
444.048	56.20513
444.26	54.09713
444.471	33.01848
444.682	66.74543
444.894	41.44967
445.105	68.85356
445.316	54.09713
445.528	54.09713
445.739	20.37242
445.95	14.04971
446.161	28.80304
446.373	35.12624
446.584	85.71941
446.795	81.50281
447.006	62.52924
447.217	24.58768
447.429	77.2863
447.64	51.98916
447.851	26.69535
448.062	22.48004
448.273	102.58669
448.484	-15.45344
448.695	111.02086
448.907	26.69535
449.118	1.40492
449.329	62.52924
449.54	22.48004
449.751	22.48004
449.962	1.40492
450.173	18.26482
450.384	56.20513
450.595	-25.98912
450.806	79.39455
451.017	18.26482
451.228	-40.73804
451.439	5.61975
451.65	102.58669
451.861	35.12624
452.072	3.51233
452.283	-57.59244
452.494	39.34183
452.705	85.71941
452.915	1.40492
453.126	18.26482
453.337	43.55752
453.548	51.98916
453.759	127.89025
453.97	9.83468
454.181	51.98916
454.391	20.37242
454.602	33.01848
454.813	18.26482
455.024	60.42118
455.235	49.88122
455.445	5.61975
455.656	87.82774
455.867	26.69535
456.078	68.85356
456.288	-70.23219
456.499	41.44967
456.71	77.2863
456.921	77.2863
457.131	33.01848
457.342	51.98916
457.553	94.15287
457.763	51.98916
457.974	54.09713
458.184	153.19692
458.395	9.83468
458.606	47.77329
458.816	94.15287
459.027	14.04971
459.237	35.12624
459.448	45.6654
459.659	43.55752
459.869	111.02086
460.08	102.58669
460.29	56.20513
460.501	26.69535
460.711	45.6654
460.922	94.15287
461.132	182.72519
461.343	-11.23899
461.553	60.42118
461.764	70.96171
461.974	77.2863
462.184	102.58669
462.395	70.96171
462.605	39.34183
462.816	104.6952
463.026	45.6654
463.236	60.42118
463.447	68.85356
463.657	163.74226
463.867	98.36974
464.078	64.63732
464.288	102.58669
464.498	178.50662
464.709	56.20513
464.919	127.89025
465.129	60.42118
465.339	106.80373
465.55	51.98916
465.76	94.15287
465.97	148.97893
466.18	70.96171
466.391	138.43433
466.601	77.2863
466.811	136.32547
467.021	186.94385
467.231	170.06972
467.441	104.6952
467.651	229.13482
467.862	191.16258
468.072	203.81928
468.282	165.85139
468.492	208.03833
468.702	115.23808
468.912	231.24458
469.122	246.01343
469.332	161.63315
469.542	195.3814
469.752	260.78321
469.962	220.69599
470.172	216.47669
470.382	265.00332
470.592	214.36707
470.802	197.49084
471.012	201.70978
471.222	208.03833
471.432	208.03833
471.642	273.44377
471.852	241.79366
472.062	239.6838
472.272	180.61589
472.482	275.55393
472.691	338.86722
472.901	195.3814
473.111	296.65654
473.321	368.41887
473.531	343.08867
473.741	338.86722
473.95	349.42099
474.16	256.56318
474.37	345.19943
474.58	444.42385
474.79	366.30793
474.999	359.9752
475.209	423.30926
475.419	457.09336
475.628	509.88883
475.838	381.08489
476.048	535.23389
476.258	440.20081
476.467	520.44902
476.677	541.57047
476.886	533.12172
477.096	702.13611
477.306	670.43995
477.515	541.57047
477.725	617.61889
477.935	617.61889
478.144	653.53639
478.354	702.13611
478.563	757.08198
478.773	733.83477
478.982	773.98982
479.192	795.1255
479.401	858.53818
479.611	862.76597
479.82	890.24746
480.03	905.04575
480.239	970.58551
480.449	843.74116
480.658	921.95856
480.868	1040.36082
481.077	1186.2736
481.287	955.7856
481.496	1112.25708
481.705	1203.19234
481.915	1201.07748
482.124	1196.84779
482.333	1239.14535
482.543	1050.93341
482.752	1289.90392
482.961	1304.70876
483.171	1448.53074
483.38	1361.81396
483.589	1404.1147
483.799	1355.46888
484.008	1592.35299
484.217	1313.16871
484.426	1550.05281
484.636	1537.36265
484.845	1657.91679
485.054	1784.80677
485.263	1636.76741
485.472	1759.42978
485.682	1975.11259
485.891	1786.92149
486.1	1863.0486
486.309	1844.01738
486.518	2072.36168
486.727	1898.99534
486.936	2072.36168
487.146	1975.11259
487.355	1966.6555
487.564	2040.6516
487.773	2120.98063
487.982	2089.27307
488.191	2178.04981
488.4	2241.4529
488.609	2211.86576
488.818	2175.93624
489.027	2321.75188
489.236	2469.63369
489.445	2480.19468
489.654	2418.93711
489.863	2385.136
490.072	2537.21919
490.281	2579.45414
490.49	2461.18469
490.698	2655.46488
490.907	2549.89017
491.116	2790.55429
491.325	2720.90553
491.534	2733.57002
491.743	2820.0978
491.952	2976.21012
492.16	2912.9309
492.369	2961.44616
492.578	2982.5373
492.787	3071.1035
492.996	2997.30021
493.204	3079.53695
493.413	3096.4031
493.622	3288.18261
493.831	3060.56133
494.039	3374.5433
494.248	3136.45614
494.457	3340.84503
494.665	3382.96717
494.874	3473.50587
495.083	3490.34662
495.291	3570.32423
495.5	3340.84503
495.709	3448.24258
495.917	3507.18621
496.126	3841.62382
496.335	3610.30301
496.543	3789.07153
496.752	3696.54984
496.96	3858.43793
497.169	3637.65302
497.377	3759.63689
497.586	3711.27171
497.794	4261.58485
498.003	3883.65672
498.211	4026.50833
498.42	4058.007
498.628	4221.72442
498.837	3919.37841
499.045	4099.99797
499.254	3898.36635
499.462	4213.33178
499.671	4120.99033
499.879	4349.66989
500.087	4387.40896
500.296	4314.021
500.504	4110.49441
500.713	4265.78023
500.921	4305.63212
501.129	4358.05696
501.338	4293.04815
501.546	4684.87838
501.754	4418.85279
501.962	4469.1527
502.171	4416.75669
502.379	4603.22364
502.587	4563.43081
502.795	4674.41173
503.004	4395.79446
503.212	4555.05235
503.42	4799.97426
503.628	4753.94412
503.837	4682.78509
504.045	4871.09009
504.253	4873.18133
504.461	4992.34425
504.669	4776.96056
504.877	5059.20994
505.085	5171.992
505.294	5128.14036
505.502	4825.07697
505.71	5178.25568
505.918	5027.86959
506.126	5209.57095
506.334	5075.92266
506.542	5057.12075
506.75	5288.87945
506.958	5242.96812
507.166	5144.84695
507.374	5522.43397
507.582	5247.14234
507.79	5505.76128
507.998	5311.83088
508.206	5534.93749
508.414	5182.43135
508.622	5324.34864
508.83	5245.05524
509.037	5609.94084
509.245	5328.52104
509.453	5643.26585
509.661	5701.57009
509.869	5676.58482
510.077	5482.83388
510.285	5774.42436
510.492	5851.41031
510.7	5776.50549
510.908	5545.35645
511.116	5645.34846
511.324	5780.66767
511.531	5847.24973
511.739	5653.67868
511.947	6021.9127
512.155	5897.17042
512.362	6100.87229
512.57	5851.41031
512.778	6009.44229
512.985	6011.52075
513.193	6036.46044
513.401	6125.79983
513.608	6167.33823
513.816	6003.20677
514.024	6046.85098
514.231	6308.49858
514.439	6248.31109
514.646	6107.10449
514.854	6202.63848
515.061	6264.9165
515.269	6167.33823
515.477	6383.18675
515.684	6549.05241
515.892	6437.1094
516.099	6582.20774
516.307	6335.4728
516.514	6478.57767
516.722	6347.92111
516.929	6712.69944
517.136	6522.10935
517.344	6723.05201
517.551	6468.21147
517.759	6708.55825
517.966	6627.78665
518.173	6557.3418
518.381	6528.32733
518.588	6826.54631
518.796	6797.57366
519.003	6704.41696
519.21	6694.06335
519.418	6934.11998
519.625	6764.45659
519.832	7111.89635
520.039	6865.85919
520.247	6888.61553
520.454	7027.16322
520.661	7310.14961
520.868	7136.68918
521.076	7392.69527
521.283	6896.88989
521.49	7151.15019
521.697	7082.96732
521.904	7324.59763
522.112	7107.7639
522.319	7376.18893
522.526	7045.7664
522.733	7487.57973
522.94	7407.13717
523.147	7334.91698
523.354	7396.82164
523.561	7499.95259
523.768	7369.9987
523.975	7436.01778
524.183	7376.18893
524.39	7837.84714
524.597	7697.81354
524.804	7683.3928
525.011	7693.69343
525.218	7769.90174
525.425	7685.45297
525.632	7537.06652
525.838	7771.96103
526.045	7986.01337
526.252	7841.96431
526.459	7944.86677
526.666	8006.5836
526.873	8150.51855
527.08	8092.95642
527.287	8220.39438
527.494	7930.46353
527.701	8265.59594
527.907	7922.23265
528.114	8314.89589
528.321	8166.96199
528.528	8140.24075
528.735	8203.95507
528.941	8242.99636
529.148	8129.96245
529.355	8423.72684
529.562	8138.18513
529.768	8557.12508
529.975	8160.79585
530.182	8466.83354
530.388	8282.03051
530.595	8550.97
530.802	8516.08802
531.008	8764.24792
531.215	8606.35958
531.422	8538.65934
531.628	8741.69914
531.835	8702.74601
532.042	8872.86125
532.248	8944.55936
532.455	8751.94886
532.661	9048.99496
532.868	8833.93024
533.074	9161.5709
533.281	8747.84902
533.487	9364.0783
533.694	8846.22494
533.9	9157.47814
534.107	9094.03159
534.313	9122.68691
534.52	9161.5709
534.726	9167.70991
534.933	9245.45752
535.139	9392.70258
535.345	9315.00061
535.552	9245.45752
535.758	9298.63927
535.965	9537.81966
536.171	9368.16768
536.377	9355.89935
536.584	9498.99344
536.79	9756.36686
536.996	9562.33852
537.203	9394.74705
537.409	9214.77059
537.615	9656.30653
537.821	9445.85347
538.028	9658.34895
538.234	9456.07354
538.44	9619.54038
538.646	9821.69267
538.853	9766.57503
539.059	9823.73385
539.265	9921.69322
539.471	9884.96244
539.677	9813.52778
539.883	9995.14058
540.09	10205.17967
540.296	9866.59527
540.502	10274.48069
540.708	9870.67697
540.914	10062.45093
541.12	10048.17427
541.326	10245.94688
541.532	10231.67898
541.738	10319.3142
541.944	10164.40698
542.15	10490.43798
542.356	10319.3142
542.562	10476.18116
542.768	10264.29035
542.974	10441.55484
543.18	10408.96195
543.386	10791.72495
543.592	10541.35009
543.798	10643.15079
544.004	10445.62872
544.21	10987.01496
544.415	10547.45901
544.621	10718.46351
544.827	10425.25881
545.033	10728.63964
545.239	10592.25433
545.445	11076.48819
545.651	10877.17735
545.856	11007.35166
546.062	10897.52015
546.268	11003.28441
546.474	10775.44596
546.679	10832.41913
546.885	10818.1767
547.091	11005.31804
547.297	10744.92081
547.502	10954.47392
547.708	11139.51349
547.914	10938.20232
548.119	11003.28441
548.325	11302.11258
548.531	11066.32185
548.736	11263.50129
548.942	11052.08851
549.147	11141.54639
549.353	11291.95207
549.559	11474.80314
549.764	11255.37213
549.97	11377.29253
550.175	11245.21045
550.381	11653.51576
550.586	11586.50695
550.792	11293.98419
550.997	11300.0805
551.203	11631.18059
551.408	11474.80314
551.614	11702.24327
551.819	11712.39419
552.025	11913.33791
552.23	11763.14548
552.435	12059.42791
552.641	12177.08216
552.846	11901.16185
553.052	11673.81952
553.257	12067.54282
553.462	11925.51367
553.668	11860.57285
553.873	11972.1847
554.078	12035.08244
554.283	11982.33002
554.489	12183.16703
554.694	12244.01217
554.899	12244.01217
555.105	12116.2297
555.31	12195.33659
555.515	12051.31288
555.72	12308.9065
555.925	11888.9855
556.131	12531.92724
556.336	12075.65761
556.541	12535.98143
556.746	12424.48188
556.951	12444.756
557.156	12215.61859
557.361	12304.85082
557.567	12718.39429
557.772	12596.79122
557.977	12501.52003
558.182	12807.5565
558.387	12645.43504
558.592	12564.36003
558.797	12643.40828
559.002	12598.81811
559.207	12497.46562
559.412	12898.73398
559.617	12736.63292
559.822	12931.15003
560.027	12685.96891
560.232	13079.03161
560.437	12791.34601
560.642	12825.79288
560.847	12819.71414
561.051	13014.21009
561.256	12785.26698
561.461	12983.82326
561.666	13133.72092
561.871	13350.42025
562.076	13060.80106
562.281	13204.60944
562.485	13000.02971
562.69	13002.05549
562.895	13072.9548
563.1	13480.01202
563.305	13034.46736
563.509	13267.39182
563.714	13334.22014
563.919	13384.84464
564.123	13190.43218
564.328	13320.04481
564.533	13156.00078
564.737	13058.77542
564.942	13040.54444
565.147	13455.71477
565.351	13139.7973
565.556	13354.47024
565.761	13552.90055
565.965	13874.77286
566.17	13190.43218
566.374	13346.37025
566.579	13530.62955
566.784	13583.26939
566.988	13607.5639
567.193	13567.07277
567.397	13577.19569
567.602	13593.39216
567.806	13332.1951
568.011	13652.10256
568.215	13516.45688
568.42	13836.3142
568.624	13727.00489
568.828	13915.25459
569.033	13639.95581
569.237	14089.31432
569.442	13963.83125
569.646	13761.41803
569.85	13850.4833
570.055	14075.14733
570.259	14004.31068
570.463	14370.60941
570.668	13775.58789
570.872	14018.47824
571.076	13921.32675
571.281	14342.27915
571.485	14241.09687
571.689	14040.74132
571.893	14093.36201
572.098	14196.57519
572.302	14483.92741
572.506	14483.92741
572.71	14263.35736
572.914	14546.65513
573.119	14451.55132
573.323	14530.46745
573.527	14206.69383
573.731	14769.22862
573.935	14293.71221
574.139	14862.30172
574.343	14366.56225
574.547	14532.49091
574.751	14419.17485
574.955	14435.36313
575.159	14538.5613
575.364	14748.99513
575.568	14831.95195
575.772	14781.36867
575.976	14811.71869
576.18	14603.31139
576.383	15105.09629
576.587	14937.16395
576.791	14615.4519
576.995	14838.02191
577.199	14757.08854
577.403	14748.99513
577.607	15074.74719
577.811	14999.8859
578.015	14789.46202
578.219	15230.53909
578.422	14929.07077
578.626	15242.67873
578.83	14995.83933
579.034	15032.25839
579.238	15066.65409
579.442	15509.75347
579.645	15028.21183
579.849	15003.93246
580.053	15412.63457
580.257	15323.60982
580.46	15190.07366
580.664	15780.88582
580.868	15190.07366
581.071	15461.19386
581.275	15258.86492
581.479	15428.82097
581.682	15212.32965
581.886	15309.44685
582.09	15169.84096
582.293	15683.76199
582.497	15687.80878
582.7	15902.2941
582.904	15376.21526
583.107	15633.17752
583.311	15438.93748
583.515	15809.21405
583.718	15631.15415
583.922	15861.8242
584.125	15351.9358
584.329	15598.78038
584.532	15651.38787
584.735	15857.77724
584.939	15667.5749
585.142	15724.22998
585.346	15440.96079
585.549	16060.13172
585.753	15671.62167
585.956	16023.70689
586.159	15958.9528
586.363	16017.63614
586.566	16201.78856
586.769	16100.60431
586.973	16201.78856
587.176	16288.8104
587.379	16013.58897
587.582	16217.97842
587.786	16126.91182
587.989	16394.05062
588.192	16618.71623
588.395	16596.45089
588.599	16230.12089
588.802	16863.65363
589.005	16513.46424
589.208	16137.03017
589.411	16375.8356
589.615	16422.38542
589.818	16746.24124
590.021	16645.03017
590.224	16598.475
590.427	16655.15101
590.63	16679.44128
590.833	16707.78034
591.036	16699.68342
591.239	17037.7637
591.442	16578.234
591.645	16908.19157
591.848	17051.93632
592.051	16839.36073
592.254	16782.67868
592.457	16983.09913
592.66	16740.16841
592.863	17039.78835
593.066	16894.02028
593.269	17029.66512
593.472	16780.65436
593.675	17298.96701
593.878	17033.7144
594.081	17068.13376
594.284	17118.75191
594.486	17392.12107
594.689	17689.85351
594.892	17230.11807
595.095	17511.61083
595.298	17398.19656
595.5	17341.49307
595.703	17566.29626
595.906	17296.94199
596.109	17497.43351
596.311	17242.26764
596.514	17379.97018
596.717	17491.35756
596.92	17787.08758
597.122	17448.82672
597.325	17309.09214
597.528	17175.44633
597.73	18121.39044
597.933	17384.02046
598.136	17746.57244
598.338	17823.55237
598.541	17799.24239
598.743	17639.21382
598.946	17693.90478
599.148	17839.75929
599.351	17718.21265
599.554	17756.7011
599.756	17616.933
599.959	18182.18323
600.161	18044.39094
600.363	18206.50126
600.566	17760.75259
600.768	17801.2682
600.971	18129.49596
601.173	17908.6412
601.376	18311.88558
601.578	17896.48528
601.78	17892.43333
601.983	18133.54874
602.185	18196.36868
602.388	17884.32948
602.59	18208.52779
602.792	17985.63164
602.995	18115.31134
603.197	18113.28499
603.399	18386.87672
603.601	18161.9186
603.804	18247.0325
604.006	18281.48522
604.208	17849.88873
604.41	18222.71358
604.613	18516.6034
604.815	18230.81983
605.017	18549.03752
605.219	18356.47428
605.421	18271.35196
605.623	18186.2362
605.826	18536.87461
606.028	18251.08571
606.23	18368.63516
606.432	18295.67195
606.634	18697.03082
606.836	18210.55432
607.038	18360.52789
607.24	18429.44156
607.442	18674.72912
607.644	18502.41378
607.846	18615.93603
608.048	18510.52211
608.25	18784.21473
608.452	18577.41819
608.654	19060.00776
608.856	18721.36048
609.058	18907.90683
609.26	18695.00337
609.462	18609.85417
609.664	18782.18711
609.866	18605.79962
610.067	18893.7119
610.269	18869.37819
610.471	18741.63563
610.673	19070.14863
610.875	19003.22076
611.077	18745.6907
611.278	18682.83877
611.48	18857.21155
611.682	18542.95605
611.884	18936.29728
612.085	18711.22305
612.287	19108.68487
612.489	18484.17026
612.69	18932.24146
612.892	19033.64197
613.094	18836.93414
613.295	18384.84987
613.497	18903.85112
613.699	18838.96186
613.9	18654.45527
614.102	18863.29485
614.304	18617.96332
614.505	18684.8662
614.707	19096.51537
614.908	18474.03511
615.11	19285.15912
615.311	19293.27363
615.513	19033.64197
615.714	18830.85099
615.916	19072.17682
616.117	18786.24235
616.319	19047.83885
616.52	18932.24146
616.722	18847.0728
616.923	18719.33298
617.124	18607.82689
617.326	18611.88145
617.527	18993.08055
617.729	19277.04468
617.93	19045.81071
618.131	18944.40899
618.333	18855.18379
618.534	19236.47347
618.735	19208.0746
618.937	19244.58758
619.138	19376.45112
619.339	19053.92329
619.54	19370.36473
619.742	18986.99648
619.943	18863.29485
620.144	19167.50618
620.345	19530.65222
620.546	19380.50874
620.748	19605.7325
620.949	19122.8828
621.15	19248.64466
621.351	19238.50199
621.552	19313.56018
621.753	19309.50284
621.954	19323.70361
622.155	19027.55766
622.356	19346.01953
622.558	19272.98749
622.759	19534.71047
622.96	19329.78972
623.161	19258.78743
623.362	19301.3882
623.563	19323.70361
623.764	19015.38913
623.965	19778.23592
624.166	19199.96078
624.366	19171.56294
624.567	19301.3882
624.768	19674.73024
624.969	19439.34604
625.17	19774.17667
625.371	19461.66455
625.572	19427.17252
625.773	19467.7515
625.973	19573.26465
626.174	19323.70361
626.375	19366.30715
626.576	19244.58758
626.777	19686.90681
626.977	19674.73024
627.178	19867.5437
627.379	19674.73024
627.58	19814.76994
627.78	19684.87737
627.981	19887.84206
628.182	19692.99516
628.382	19731.55554
628.583	19650.37755
628.784	19768.08782
628.984	19516.44848
629.185	19891.90178
629.386	19559.0603
629.586	19747.79194
629.787	19630.08409
629.987	19979.18987
630.188	19658.49504
630.388	19557.03113
630.589	19410.94139
630.79	19496.15778
630.99	19388.62402
631.191	19548.91446
631.391	19668.64201
631.591	19733.58507
631.792	19831.00772
631.992	20046.18368
632.193	19934.52988
632.393	19971.06972
632.594	19729.52601
632.794	19630.08409
632.994	19169.53456
633.195	19725.46696
633.395	19656.46566
633.595	20184.24597
633.796	19636.17209
633.996	19971.06972
634.196	19908.14084
634.397	19906.11094
634.597	20123.33374
634.797	20308.11251
634.997	20013.70126
635.198	20159.88062
635.398	19987.31009
635.598	20375.1288
635.798	20161.91105
635.998	19814.76994
636.199	20034.00265
636.399	20019.79163
636.599	20072.57644
636.799	20068.51597
636.999	20048.21387
637.199	19946.70968
637.399	20582.29889
637.599	20318.2662
637.799	20230.94791
637.999	20815.92507
638.199	20580.2676
638.399	20478.7084
638.599	20019.79163
638.799	20728.56276
638.999	20519.33083
639.199	20519.33083
639.399	20373.09793
639.599	20210.64245
639.799	20159.88062
639.999	20557.92368
640.199	20029.94234
640.399	20616.83147
640.599	19780.26555
640.799	20754.97382
640.998	20580.2676
641.198	20312.17398
641.398	20159.88062
641.598	20606.6747
641.798	20590.42409
641.997	20521.36199
642.197	20503.08165
642.397	20389.34496
642.597	20584.33018
642.796	20633.08251
642.996	20312.17398
643.196	20706.2155
643.395	20141.60701
643.595	20645.27097
643.795	20478.7084
643.994	20677.77425
644.194	20637.14531
644.394	21002.86545
644.593	20789.5124
644.793	20891.10342
644.992	20572.14248
645.192	20716.37328
645.392	20624.95696
645.591	20746.84726
645.791	20306.08179
645.99	20797.6393
646.19	20917.51878
646.389	21218.29628
646.589	20966.28741
646.788	20891.10342
646.987	20659.49102
647.187	21069.92862
647.386	20771.22712
647.586	20885.00767
647.785	20960.1912
647.984	20966.28741
648.184	20986.60838
648.383	21098.38101
648.582	20787.48069
648.782	21218.29628
648.981	20852.49762
649.18	20941.9028
649.38	20956.12709
649.579	21023.18715
649.778	21240.65492
649.977	21590.32601
650.177	21240.65492
650.376	20947.9989
650.575	20907.35894
650.774	21185.77549
650.973	21163.41804
651.173	21139.02867
651.372	21354.48833
651.571	20984.57626
651.77	21047.57373
651.969	21269.11209
652.168	21269.11209
652.367	21177.64545
652.566	20927.67871
652.765	21336.19282
652.964	21498.83091
653.163	21423.60762
653.362	21169.51548
653.561	21486.63216
653.76	21023.18715
653.959	21466.30125
654.158	21228.45924
654.357	20972.38366
654.556	21080.0901
654.755	21246.75282
654.954	21214.23112
655.153	21429.7066
655.352	21423.60762
655.551	21604.5593
655.749	21531.36158
655.948	21653.36062
656.147	21714.36543
656.346	21936.04567
656.545	21382.94865
656.743	21399.21205
656.942	21277.24286
657.141	21545.59407
657.34	21189.84053
657.538	21523.22882
657.737	21313.83209
657.936	21728.6004
658.135	21517.12929
658.333	21586.25939
658.532	21698.09714
658.731	21734.70116
658.929	21527.29519
659.128	21344.32412
659.326	21789.60954
659.525	21620.82615
659.724	21698.09714
659.922	21734.70116
660.121	21088.21935
660.319	21423.60762
660.518	21307.7338
660.716	21777.40743
660.915	21946.21558
661.113	22060.1251
661.312	21602.52596
661.51	21866.89279
661.709	21366.68552
661.907	21541.52762
662.105	21439.87165
662.304	21708.26479
662.502	21740.80195
662.701	21531.36158
662.899	21657.42749
663.097	21940.11362
663.296	21925.87585
663.494	22251.35688
663.692	21624.89291
663.891	21777.40743
664.089	21450.0368
664.287	21917.74006
664.485	21279.27556
664.684	21803.84551
664.882	21748.93639
665.08	21661.49439
665.278	21677.76212
665.476	21976.72589
665.675	21726.56682
665.873	21944.18159
666.071	22080.46734
666.269	21718.43255
666.467	21626.92629
666.665	22037.74908
666.863	21551.69377
667.061	21441.90467
667.259	21391.08032
667.457	21789.60954
667.655	21535.42799
667.853	21437.83863
668.051	21358.55404
668.249	21683.86259
668.447	21801.81179
668.645	21639.12667
668.843	21529.32838
669.041	21901.46867
669.239	21110.57514
669.437	21622.85953
669.635	21519.16246
669.833	21350.42263
670.031	21289.43912
670.229	21218.29628
670.426	21661.49439
670.624	21506.96348
670.822	21297.57005
671.02	21763.17182
671.218	21246.75282
671.415	21545.59407
671.613	21080.0901
671.811	21529.32838
672.009	21872.99434
672.206	21781.47479
672.404	21332.1272
672.602	21702.16419
672.799	21685.89608
672.997	22279.84101
673.195	21832.31802
673.392	21773.34009
673.59	21696.06362
673.788	21722.49968
673.985	21356.52118
674.183	21712.33188
674.38	21328.06159
674.578	21504.93033
674.775	21543.56084
674.973	21523.22882
675.17	21380.91575
675.368	21673.69516
675.565	21759.10453
675.763	21799.77807
675.96	21600.49263
676.158	21232.52445
676.355	21067.89634
676.553	21986.89619
676.75	21208.13342
676.947	21464.26818
677.145	21275.21016
677.342	21592.35933
677.539	21250.81811
677.737	21574.05963
677.934	21639.12667
678.131	21702.16419
678.329	21657.42749
678.526	21700.13066
678.723	21525.262
678.92	22015.37351
679.118	21513.06295
679.315	21443.9377
679.512	21789.60954
679.709	21691.99659
679.906	21795.71065
680.104	21781.47479
680.301	21539.49441
680.498	21053.67047
680.695	21136.99625
680.892	21212.19855
681.089	21141.06109
681.286	21258.94873
681.483	20793.57585
681.68	21317.89764
681.877	20872.81628
682.075	20759.03712
682.272	21045.5415
682.469	21407.34384
682.665	21161.38557
682.862	21073.9932
683.059	21078.05779
683.256	21094.31633
683.453	20895.16728
683.65	21069.92862
683.847	21043.50926
684.044	20968.31949
684.241	20679.80574
684.438	20947.9989
684.635	20964.25534
684.831	21094.31633
685.028	21157.32064
685.225	21212.19855
685.422	21216.2637
685.619	21023.18715
685.815	20789.5124
686.012	21291.47185
686.209	20657.45957
686.405	20817.95685
686.602	20754.97382
686.799	20830.14757
686.996	20921.58274
687.192	21136.99625
687.389	21244.72019
687.586	21067.89634
687.782	21013.02625
687.979	21082.1224
688.175	20557.92368
688.372	20974.41575
688.568	20689.96326
688.765	20842.33844
688.962	20596.51804
689.158	20935.80674
689.355	20726.53117
689.551	20454.33575
689.748	20334.51232
689.944	20712.31016
690.14	20578.23631
690.337	20708.24705
690.533	20807.79802
690.73	20444.18065
690.926	20791.54412
691.123	20787.48069
691.319	20706.2155
691.515	20576.20503
691.712	20332.48154
691.908	20519.33083
692.104	20511.20621
692.301	20582.29889
692.497	20436.05665
692.693	20403.56133
692.889	20578.23631
693.086	20614.80011
693.282	20769.19544
693.478	20935.80674
693.674	20882.97576
693.87	20791.54412
694.067	20515.26851
694.263	20555.89244
694.459	20210.64245
694.655	20746.84726
694.851	20561.98617
695.047	20543.70508
695.243	20653.39669
695.439	20464.49095
695.635	20659.49102
695.831	20773.2588
696.027	20490.89495
696.224	20145.66778
696.42	20289.83614
696.615	20356.85117
696.811	20186.27644
697.007	20283.74409
697.203	20230.94791
697.399	20354.82035
697.595	20515.26851
697.791	20606.6747
697.987	20448.24268
698.183	20501.05053
698.379	20113.18207
698.575	20462.4599
698.77	19958.88962
698.966	20415.74695
699.162	20354.82035
699.358	20612.76875
699.554	20350.75871
699.749	20393.40676
699.945	20438.08765
700.141	20320.29695
700.337	20310.14324
700.532	20594.48672
700.728	20411.68506
700.924	20442.14965
701.119	20044.1535
701.315	20094.90933
701.511	19749.82151
701.706	20052.27425
701.902	19804.62147
702.097	20155.81979
702.293	19648.34818
702.489	19938.5898
702.684	19991.37022
702.88	20113.18207
703.075	19727.49648
703.271	20031.97249
703.466	19952.79963
703.662	20342.63548
703.857	20048.21387
704.053	19908.14084
704.248	20060.39508
704.443	20159.88062
704.639	20044.1535
704.834	20397.46857
705.03	19938.5898
705.225	20153.78938
705.42	19993.4003
705.616	20068.51597
705.811	20015.73138
706.006	20328.41999
706.202	20080.69743
706.397	20180.18504
706.592	20153.78938
706.787	20216.73404
706.983	19749.82151
707.178	20251.2538
707.373	19950.76964
707.568	19987.31009
707.763	19812.74024
707.959	19800.5621
708.154	19798.53243
708.349	19735.61461
708.544	19820.85908
708.739	19910.17074
708.934	19626.02545
709.129	19256.75887
709.324	19429.20143
709.519	19623.99614
709.714	19374.42232
709.909	19599.6447
710.104	19392.68169
710.299	19640.23077
710.494	19666.61261
710.689	19977.15983
710.884	19930.46998
711.079	20186.27644
711.274	19873.63317
711.469	20172.06322
711.664	19869.57352
711.859	19971.06972
712.054	19368.33594
712.249	19455.57763
712.443	19508.33215
712.638	19350.07702
712.833	18984.96847
713.028	19301.3882
713.223	19171.56294
713.417	19423.11471
713.612	19621.96683
713.807	19887.84206
714.002	19853.3351
714.196	20281.71341
714.391	19654.43629
714.586	19826.94825
714.78	19644.28947
714.975	19636.17209
715.17	19350.07702
715.364	19877.69283
715.559	19520.50667
715.754	19810.71054
715.948	19526.59399
716.143	19518.47757
716.337	19025.52956
716.532	19814.76994
716.726	19841.15647
716.921	19983.24997
717.115	19971.06972
717.31	19934.52988
717.504	19429.20143
717.699	19577.32308
717.893	19333.84715
718.088	19183.73335
718.282	19309.50284
718.476	19023.50147
718.671	19264.87314
718.865	19348.04827
719.059	18964.68852
719.254	19193.87546
719.448	19076.2332
719.642	18928.18565
719.837	18948.46486
720.031	19092.45891
720.225	19135.05262
720.419	19431.23034
720.614	18907.90683
720.808	19114.76967
721.002	18595.6633
721.196	19086.37424
721.39	19051.89514
721.585	19319.64623
721.779	18942.38106
721.973	19358.19205
722.167	18733.52552
722.361	18767.99391
722.555	18617.96332
722.749	18496.33257
722.943	18482.14322
723.137	18111.25863
723.331	18435.52239
723.525	18581.47263
723.719	18717.30549
723.913	18840.98959
724.107	18579.44541
724.301	18603.77235
724.495	18362.5547
724.689	18753.80091
724.883	18218.66048
725.077	18705.14064
725.271	18443.63022
725.465	18496.33257
725.659	18615.93603
725.853	18703.11318
726.046	18875.46157
726.24	18315.93902
726.434	18401.06482
726.628	18851.12829
726.822	18676.75653
727.015	18978.88444
727.209	18587.55432
727.403	18934.26937
727.596	18703.11318
727.79	18954.54871
727.984	18905.87897
728.177	19049.86699
728.371	18824.76788
728.565	18741.63563
728.758	18703.11318
728.952	18553.09185
729.146	18660.53739
729.339	18733.52552
729.533	18913.99044
729.726	18555.11903
729.92	18709.19558
730.113	18851.12829
730.307	18619.99062
730.5	18613.90874
730.694	18670.67432
730.887	18976.85644
731.081	18911.96256
731.274	18753.80091
731.468	18540.9289
731.661	18986.99648
731.854	18595.6633
732.048	18265.27204
732.241	18344.31355
732.435	18238.92614
732.628	18425.3877
732.821	18295.67195
733.014	18411.19928
733.208	18583.49986
733.401	18634.18181
733.594	18763.93875
733.788	18532.82033
733.981	18486.1973
734.174	18654.45527
734.367	18640.26381
734.56	18666.61954
734.754	18530.7932
734.947	18571.33655
735.14	18472.00809
735.333	18437.54934
735.526	18392.95731
735.719	18040.33847
735.912	17876.22569
736.105	17841.78517
736.298	18172.05087
736.491	17963.34441
736.684	18153.81285
736.877	18409.17238
737.07	18476.06213
737.263	18038.31225
737.456	18498.35964
737.649	18101.12691
737.842	18084.91634
738.035	17947.13578
738.228	17967.3966
738.421	18255.13893
738.614	18074.78486
738.807	18401.06482
739	17908.6412
739.192	18005.89313
739.385	18512.5492
739.578	18078.83744
739.771	18216.63393
739.964	17953.21399
740.156	18198.39519
740.349	18240.95272
740.542	18190.28918
740.735	18125.44319
740.927	17985.63164
741.12	18176.1038
741.313	18196.36868
741.505	18032.23359
741.698	17928.90135
741.891	17884.32948
742.083	18044.39094
742.276	18411.19928
742.468	18165.9715
742.661	17580.47434
742.854	17699.9817
743.046	17657.44387
743.239	17801.2682
743.431	18159.89216
743.624	17943.08366
743.816	17748.59817
744.009	17965.3705
744.201	17477.18046
744.393	17570.34712
744.586	17754.67536
744.778	17746.57244
744.971	17327.31757
745.163	17817.47482
745.355	17552.11833
745.548	17687.82789
745.74	17766.82984
745.932	17446.80148
746.125	17592.62711
746.317	17643.26492
746.509	17414.398
746.702	17578.44889
746.894	17440.72576
747.086	17683.77664
747.278	17706.05866
747.471	17815.44898
747.663	17914.71921
747.855	17825.57822
748.047	17558.19456
748.239	17633.13719
748.431	17460.97825
748.623	17736.44387
748.815	17483.25634
749.008	17481.23105
749.2	17560.21998
749.392	17766.82984
749.584	17616.933
749.776	17823.55237
749.968	17683.77664
750.16	17811.39731
750.352	17544.01673
750.544	17398.19656
750.736	17274.66699
750.928	17627.0606
751.12	17183.54571
751.311	17173.42149
751.503	17428.57442
751.695	17463.00351
751.887	17410.34762
752.079	17671.62299
752.271	17541.99134
752.463	17266.56708
752.654	17094.45498
752.846	17228.09315
753.038	17035.73905
753.23	17325.29251
753.421	17076.23255
753.613	17197.71975
753.805	17388.07076
753.997	17311.11717
754.188	17096.47971
754.38	16815.06819
754.572	16908.19157
754.763	17049.91165
754.955	16813.04382
755.146	17398.19656
755.338	17203.79438
755.53	16865.67806
755.721	17256.44226
755.913	17262.51714
756.104	17112.67764
756.296	16865.67806
756.487	16960.82894
756.679	17078.25725
756.87	16991.19746
757.062	16865.67806
757.253	16711.82882
757.445	16564.06542
757.636	16736.11987
757.827	16651.10267
758.019	16972.97628
758.21	16991.19746
758.401	16717.90155
758.593	16622.7645
758.784	16379.88337
758.975	16456.79248
759.167	16685.51389
759.358	16547.8729
759.549	16062.15533
759.74	16205.83601
759.932	16317.1438
760.123	16398.09843
760.314	16147.14856
760.505	16173.45656
760.696	16153.21961
760.888	16337.38217
761.079	16560.01728
761.27	16513.46424
761.461	16290.8342
761.652	16458.81645
761.843	16139.05385
762.034	16244.28719
762.225	16213.93095
762.416	16424.40935
762.607	16321.19146
762.798	16618.71623
762.989	16493.22414
763.18	16213.93095
763.371	15995.3768
763.562	16209.88348
763.753	15985.25898
763.944	16367.74008
764.135	16045.96645
764.326	16331.31064
764.517	16181.55138
764.708	16294.88181
764.899	15821.35478
765.089	15732.32362
765.28	15629.13079
765.471	15908.36462
765.662	15665.55152
765.853	15938.71743
766.043	15412.63457
766.234	15625.08406
766.425	15544.15007
766.615	15819.33132
766.806	15958.9528
766.997	15752.5578
767.187	15467.2638
767.378	15819.33132
767.569	15434.89088
767.759	15517.84677
767.95	15515.82345
768.141	15649.3645
768.331	15768.74521
768.522	15687.80878
768.712	15501.66018
768.903	15669.59829
769.093	15384.30843
769.284	15582.59357
769.474	15145.56171
769.665	15068.67737
769.855	15036.30494
770.046	15477.38036
770.236	15127.35227
770.426	14935.14066
770.617	15042.37478
770.807	15289.21406
770.998	14961.44346
771.188	15099.02647
771.378	15335.74952
771.569	15194.1202
771.759	15190.07366
771.949	14886.58144
772.139	15315.51669
772.33	14809.69536
772.52	15287.19079
772.71	15293.26062
772.9	15034.28167
773.09	15030.23511
773.281	15090.93338
773.471	15171.86423
773.661	15141.51517
773.851	14732.80829
774.041	14795.53203
774.231	14724.71484
774.421	14684.24741
774.611	14704.48117
774.802	14655.91999
774.992	14649.8498
775.182	14692.34093
775.372	14793.5087
775.562	14734.83164
775.752	14678.17727
775.942	14520.35011
776.131	14611.40507
776.321	14176.33774
776.511	14558.79583
776.701	14277.52301
776.891	14056.93247
777.081	14271.45203
777.271	14257.28634
777.461	14392.86868
777.651	14659.96678
777.84	14164.19517
778.03	14119.67178
778.22	13980.02314
778.41	13874.77286
778.599	14095.38585
778.789	14190.50397
778.979	14356.44432
779.169	14028.59786
779.358	14032.64569
779.548	14530.46745
779.738	14202.64638
779.927	14283.59398
780.117	14067.05186
780.307	14431.31607
780.496	13939.54311
780.686	14366.56225
780.875	13635.90687
781.065	13971.92722
781.254	13959.78325
781.444	13777.61214
781.633	13767.49084
781.823	13816.07239
782.012	13769.51511
782.202	13882.8693
782.391	13656.15145
782.581	13785.70912
782.77	13433.44182
782.96	13822.14496
783.149	13469.88823
783.338	13563.02358
783.528	13390.91941
783.717	13455.71477
783.906	13656.15145
784.096	13370.67004
784.285	13615.66196
784.474	13684.4933
784.663	13777.61214
784.853	13461.78914
785.042	13714.85887
785.231	13737.1265
785.42	13380.79478
785.61	13526.58024
785.799	13457.73957
785.988	13526.58024
786.177	12989.90071
786.366	13133.72092
786.555	13431.41698
786.744	13289.66844
786.933	13311.94454
787.122	13372.69499
787.312	13401.04395
787.501	13200.55881
787.69	13156.00078
787.879	12971.6682
788.068	12756.89751
788.257	13089.15952
788.445	12621.11357
788.634	13101.31286
788.823	12870.36883
789.012	13172.20395
789.201	12813.63535
789.39	12805.53021
789.579	12801.47761
789.768	12758.92394
789.957	12748.79174
790.145	13028.39023
790.334	12931.15003
790.523	12803.50391
790.712	12862.26431
790.9	12967.61648
791.089	12481.24775
791.278	12951.40937
791.467	12353.51718
791.655	12706.23495
791.844	12367.71079
792.033	12355.54486
792.221	12248.06828
792.41	12452.86546
792.599	12126.37225
792.787	12390.01435
792.976	12197.36482
793.164	12424.48188
793.353	12404.2071
793.541	12448.81074
793.73	12347.43411
793.918	12584.62971
794.107	12256.18041
794.295	12456.92015
794.484	12327.15673
794.672	12215.61859
794.861	12097.97264
795.049	12274.43229
795.238	12146.65677
795.426	12201.42126
795.614	12063.48538
795.803	12377.84887
795.991	12087.82956
796.179	12207.50588
796.368	12041.16891
796.556	12304.85082
796.744	12156.79875
796.932	12270.37637
797.121	11775.32498
797.309	12081.74362
797.497	12012.76476
797.685	12260.23644
797.874	12221.70305
798.062	11943.77676
798.25	11793.59365
798.438	12367.71079
798.626	12136.5146
798.814	12067.54282
799.002	11923.4844
799.19	11791.56383
799.378	11828.09924
799.566	11884.92665
799.755	11832.15856
799.943	11848.3955
800.131	11893.04432
800.318	11921.45512
800.506	11842.30671
800.694	12018.85149
800.882	11767.20535
801.07	12241.9841
801.258	12024.93816
801.446	12124.34375
801.634	11787.50417
801.822	11888.9855
802.01	12039.14009
802.197	12012.76476
802.385	11933.63068
802.573	11964.06831
802.761	12024.93816
802.949	11880.86777
803.136	11694.12237
803.324	11742.84562
803.512	12012.76476
803.699	12118.25822
803.887	12132.45768
804.075	12055.37041
804.262	11968.12652
804.45	11984.35906
804.638	11507.30173
804.825	12371.76604
805.013	11933.63068
805.201	12010.73583
805.388	11811.86162
805.576	11852.45465
805.763	11748.93567
805.951	11438.23928
806.138	11647.42446
806.326	11957.98093
806.513	11761.11553
806.701	11726.6051
806.888	11580.41474
807.075	11842.30671
807.263	11791.56383
807.45	11947.83513
807.638	11556.04508
807.825	12093.91543
808.012	11836.21784
808.2	11974.21378
808.387	11738.78554
808.574	11862.60238
808.761	11826.06956
808.949	11895.07371
809.136	11726.6051
809.323	11880.86777
809.51	11785.47433
809.698	11832.15856
809.885	11726.6051
810.072	11809.83188
810.259	11992.47513
810.446	11886.95608
810.633	11769.23527
810.82	11935.65991
811.008	11647.42446
811.195	11860.57285
811.382	11612.90555
811.569	11880.86777
811.756	11799.68305
811.943	12173.02554
812.13	11848.3955
812.317	12211.56225
812.504	11757.05561
812.691	12093.91543
812.878	11763.14548
813.064	12091.88681
813.251	11795.62346
813.438	11793.59365
813.625	11491.05274
813.812	11962.03919
813.999	11854.48421
814.186	12085.80092
814.372	11805.77237
814.559	11864.6319
814.746	11692.09213
814.933	11791.56383
815.12	11541.82883
815.306	11547.92157
815.493	11539.7979
815.68	11836.21784
815.866	11454.49027
816.053	11960.01006
816.24	11531.67409
816.426	11795.62346
816.613	11606.8137
816.799	11929.57219
816.986	11838.24747
817.173	11779.38474
817.359	11631.18059
817.546	11647.42446
817.732	11316.33687
817.919	11755.02564
818.105	11730.66528
818.292	11801.71283
818.478	11661.63737
818.665	11970.15562
818.851	11809.83188
819.037	11925.51367
819.224	11736.75549
819.41	11759.08558
819.597	11137.48057
819.783	11819.9805
819.969	11519.48808
820.156	11527.61212
820.342	11541.82883
820.528	11633.21111
820.714	11501.20843
820.901	11588.53766
821.087	11631.18059
821.273	11856.51377
821.459	11647.42446
821.646	11834.1882
821.832	11442.30209
822.018	11503.23954
822.204	11233.01608
822.39	11401.67229
822.576	11109.01866
822.762	11163.90762
822.948	10974.81241
823.134	11281.79131
823.32	11094.78692
823.507	11387.45093
823.693	11462.61553
823.879	11653.51576
824.065	11174.07139
824.25	11137.48057
824.436	11080.55465
824.622	11054.12187
824.808	11084.62107
824.994	11283.82348
825.18	11060.22191
825.366	11340.72021
825.552	11111.05173
825.738	11115.11782
825.923	11100.8863
826.109	11574.32245
826.295	10991.08239
826.481	11115.11782
826.667	11359.00677
826.852	11486.9904
827.038	11222.85383
827.224	11121.21688
827.409	10787.65528
827.595	10871.07429
827.781	10757.1312
827.966	10816.14202
828.152	10451.73944
828.338	10858.86785
828.523	10722.534
828.709	10541.35009
828.894	10307.08753
829.08	10582.07411
829.266	10549.4953
829.451	10582.07411
829.637	10272.44265
829.822	10614.64972
830.008	10673.68498
830.193	10767.30619
830.378	10492.47461
830.564	10604.47018
830.749	10600.39828
830.935	10476.18116
831.12	10512.84028
831.305	10769.34115
831.491	10400.8132
831.676	10557.6403
831.861	10188.87126
832.047	10398.77599
832.232	10266.32844
832.417	10665.5428
832.602	10504.69417
832.788	10476.18116
832.973	10824.28067
833.158	10474.14442
833.343	10370.25355
833.528	10592.25433
833.714	10219.44882
833.899	10270.40459
834.084	10052.25339
834.269	10180.71672
834.454	10141.97965
834.639	10311.16314
834.824	10019.61887
835.009	10305.0497
835.194	10141.97965
835.379	10125.6678
835.564	9833.93955
835.749	10286.70866
835.934	9946.17776
836.119	10001.26034
836.304	9803.32134
836.489	9889.04388
836.674	9735.94936
836.859	10050.21384
837.044	9666.51846
837.228	9935.97612
837.413	9707.36232
837.598	9856.39076
837.783	9760.45017
837.968	9915.57175
838.152	9441.76533
838.337	9578.68317
838.522	9605.24107
838.707	9752.28348
838.891	9658.34895
839.076	9717.57232
839.261	9586.85511
839.445	9770.6582
839.63	9615.45494
839.815	9829.85731
839.999	9889.04388
840.184	10095.08068
840.368	10001.26034
840.553	9911.4907
840.737	9615.45494
840.922	9807.40396
841.106	9364.0783
841.291	9631.79632
841.475	9521.47248
841.66	9699.19404
841.844	9351.80977
842.029	9621.58307
842.213	9308.86523
842.397	9513.29851
842.582	9284.32221
842.766	9443.80941
842.951	9218.8624
843.135	9175.89502
843.319	9323.18089
843.504	9392.70258
843.688	9278.18609
843.872	9392.70258
844.056	9435.633
844.241	9407.01352
844.425	9020.33091
844.609	9028.52099
844.793	9167.70991
844.977	9087.89073
845.161	8842.12678
845.346	9161.5709
845.53	9073.56144
845.714	9153.38531
845.898	9036.71079
846.082	9227.04582
846.266	9065.37289
846.45	9108.35968
846.634	8864.66579
846.818	8942.51114
847.002	8891.29999
847.186	8979.37631
847.37	8874.91007
847.554	8967.08855
847.738	8969.13656
847.922	8936.36639
848.106	9012.14055
848.29	8690.44364
848.473	8696.59491
848.657	8429.88546
848.841	8349.80986
849.025	8639.17659
849.209	8542.76297
849.392	8433.9911
849.576	8452.46558
849.76	8493.51441
849.944	8458.62339
850.127	8717.09793
850.311	8669.93821
850.495	8600.20586
850.678	8676.09003
850.862	8610.46197
851.046	8460.67596
851.229	8458.62339
851.413	8343.64898
851.596	8442.20217
851.78	8536.6075
851.964	8612.51314
852.147	8107.34843
852.331	8218.33954
852.514	8053.88742
852.698	8144.35193
852.881	7718.4128
853.065	7885.18963
853.248	7858.43218
853.431	8068.28211
853.615	7570.05084
853.798	7879.01514
853.982	7712.23324
854.165	7944.86677
854.348	7714.29311
854.532	8230.6683
854.715	7998.35575
854.898	8228.61356
855.081	7870.7822
855.265	8008.64051
855.448	7623.63869
855.631	7920.17488
855.814	7800.78883
855.997	7757.54559
856.181	7454.58164
856.364	7656.60868
856.547	7695.75349
856.73	7817.26002
856.913	7685.45297
857.096	7848.13991
857.279	7769.90174
857.462	7850.19841
857.645	7806.96568
857.828	7881.07332
858.011	7561.80528
858.194	7693.69343
858.377	7409.20021
858.56	7436.01778
858.743	7555.62088
858.926	7318.40575
859.109	7380.31565
859.292	7438.08052
859.475	7266.79911
859.658	7332.85316
859.841	7235.82852
860.023	7479.33073
860.206	7068.50116
860.389	7462.83168
860.572	7157.34743
860.755	7140.82101
860.937	6923.77903
861.12	7198.65725
861.303	7144.95275
861.486	7285.37908
861.668	7033.36448
861.851	7219.30884
862.034	6971.34276
862.216	6818.26887
862.399	6696.13412
862.581	7020.96176
862.764	6609.14208
862.947	7153.21596
863.129	6905.16388
863.312	7136.68918
863.494	6890.68416
863.677	7107.7639
863.859	6929.98367
864.042	7033.36448
864.224	6739.61494
864.406	6973.41047
864.589	6623.64358
864.771	6673.35442
864.954	6646.42936
865.136	6747.89586
865.318	6648.50065
865.501	6683.70917
865.683	6424.66711
865.865	6712.69944
866.048	6493.08936
866.23	6658.85679
866.412	6430.88836
866.594	6590.49564
866.777	6604.99859
866.959	6665.0702
867.141	6358.29405
867.323	6296.04761
867.505	6412.22398
867.687	6451.62435
867.869	6468.21147
868.052	6718.91105
868.234	6459.9181
868.416	6706.48762
868.598	6408.07608
868.78	6476.50447
868.962	6304.34835
869.144	6513.81839
869.326	6391.48356
869.508	6374.88955
869.69	6256.61398
869.872	6532.47253
870.054	6532.47253
870.236	6478.57767
870.417	6503.45417
870.599	6459.9181
870.781	6258.68965
870.963	6493.08936
871.145	6316.79876
871.327	6391.48356
871.508	6044.77292
871.69	6345.84645
871.872	6167.33823
872.054	6144.49327
872.235	6105.02711
872.417	6163.18481
872.599	5934.60201
872.78	6138.26234
872.962	6042.69483
873.144	6248.31109
873.325	5805.63878
873.507	5774.42436
873.689	5893.01088
873.87	6183.95095
874.052	6046.85098
874.233	6115.41377
874.415	5911.72806
874.596	5984.49893
874.778	5753.61181
874.959	5855.57079
875.141	5653.67868
875.322	5965.78918
875.503	5818.12305
875.685	6084.25204
875.866	5959.55217
876.048	6192.25675
876.229	6138.26234
876.41	6121.64548
876.592	6051.00703
876.773	6080.09674
876.954	5822.28429
877.136	6005.2853
877.317	5751.53042
877.498	6088.40724
877.679	5753.61181
877.86	6001.12821
878.042	5809.8003
878.223	6003.20677
878.404	5851.41031
878.585	5959.55217
878.766	5917.96669
878.947	6051.00703
879.128	5753.61181
879.309	5917.96669
879.49	5736.96006
879.672	5990.73509
879.853	5944.99832
880.034	5990.73509
880.215	5662.00851
880.396	6252.46259
880.576	5739.04161
880.757	5847.24973
880.938	5859.73118
881.119	6136.18531
881.3	5893.01088
881.481	6069.70809
881.662	6159.0313
881.843	6111.25917
882.023	6161.10807
882.204	6250.38685
882.385	5818.12305
882.566	5888.85125
882.747	5926.28454
882.927	6221.3241
883.108	5793.15365
883.289	6217.1719
883.469	6015.6776
883.65	6102.94971
883.831	5917.96669
884.011	6242.08368
884.192	6119.56826
884.373	6161.10807
884.553	5978.26255
884.734	6217.1719
884.914	6011.52075
885.095	6169.4149
885.275	5978.26255
885.456	6192.25675
885.636	6204.71475
885.817	6277.36958
885.997	6092.56235
886.178	6370.74082
886.358	6167.33823
886.538	6181.87444
886.719	6115.41377
886.899	6472.35802
887.08	6175.64478
887.26	6509.67277
887.44	6096.71736
887.621	6196.40951
887.801	5734.87849
887.981	6046.85098
888.161	5870.13173
888.342	5868.05167
888.522	6094.63987
888.702	6161.10807
888.882	6096.71736
889.062	6181.87444
889.242	6173.56818
889.423	6244.1595
889.603	6096.71736
889.783	6233.78013
889.963	5988.65639
890.143	6109.18184
890.323	5930.44333
890.503	6173.56818
890.683	6063.47461
890.863	6240.00782
891.043	6092.56235
891.223	6192.25675
891.403	6096.71736
891.583	6208.86723
891.763	5853.49056
891.943	6098.79484
892.122	5755.69317
892.302	6111.25917
892.482	6059.31885
892.662	6017.75599
892.842	5801.47716
893.022	5930.44333
893.201	5791.07271
893.381	6001.12821
893.561	5857.65099
893.741	6044.77292
893.92	5807.71955
894.1	6051.00703
894.28	5880.5317
894.459	5961.63119
894.639	5851.41031
894.819	5888.85125
894.998	5851.41031
895.178	5876.37178
895.357	5809.8003
895.537	5859.73118
895.716	5755.69317
895.896	5936.68132
896.075	5626.6041
896.255	5884.69152
896.434	5593.27607
896.614	5938.76061
896.793	5584.94312
896.973	5793.15365
897.152	5651.59616
897.331	5747.36758
897.511	5643.26585
897.69	5645.34846
897.87	5405.69354
898.049	5384.83927
898.228	5330.60721
898.407	5470.32682
898.587	5326.43485
898.766	5370.23989
898.945	5151.11154
899.124	5409.86411
899.304	5251.31647
899.483	5197.04547
899.662	4776.96056
899.841	5067.56649
900.02	4837.6271
900.199	5134.40551
900.378	4910.81978
900.557	5126.05193
900.737	4856.45075
900.916	5151.11154
901.095	4887.81939
901.274	5134.40551
901.453	4707.90302
901.632	4994.43416
901.811	4682.78509
901.989	4850.1764
902.168	4818.8016
902.347	4921.27359
902.526	4653.47675
902.705	4768.59126
902.884	4747.66643
903.063	4910.81978
903.242	4498.48846
903.42	4741.38854
903.599	4532.00975
903.778	4829.26044
903.957	4542.48399
904.135	4521.53496
904.314	4238.5087
904.493	4385.31253
904.672	4246.90032
904.85	4347.57307
905.029	4146.17841
905.207	4397.89078
905.386	4066.40586
905.565	4326.60367
905.743	4173.46207
905.922	4154.57376
906.1	3927.78266
906.279	4200.74217
906.457	3847.92926
906.636	4047.50796
906.814	3881.55527
906.993	3976.10085
907.171	3877.3523
907.35	4055.90723
907.528	3698.65302
907.707	3986.60338
907.885	3694.44664
908.063	3694.44664
908.242	3709.16864
908.42	3852.13279
908.598	3509.29108
908.777	3694.44664
908.955	3534.54805
909.133	3683.93035
909.311	3269.22153
909.49	3505.08133
909.668	3366.11915
909.846	3553.48904
910.024	3446.13719
910.202	3759.63689
910.38	3477.71617
910.559	3597.67886
910.737	3469.2955
910.915	3797.48072
911.093	3660.79284
911.271	3662.89634
911.449	3340.84503
911.627	3486.13654
911.805	3283.96916
911.983	3570.32423
912.161	3540.86188
912.339	3818.50233
912.517	3566.11554
912.695	3784.86682
912.872	3820.60438
913.05	4083.20258
913.228	3900.46765
913.406	3812.19605
913.584	3797.48072
913.762	3860.53961
913.939	3347.16379
914.117	3818.50233
914.295	3368.22522
914.473	3772.25221
914.65	3545.07101
914.828	4013.90757
915.006	3742.81538
915.184	3736.50699
915.361	3349.27002
915.539	3643.9641
915.716	3300.82257
915.894	3364.01307
916.072	3248.15206
916.249	3498.76656
916.427	3416.65983
916.604	3456.66396
916.782	3340.84503
916.959	3473.50587
917.137	3370.33126
917.314	3582.94983
917.492	3414.55418
917.669	3473.50587
917.847	3254.47307
918.024	3260.79394
918.201	3079.53695
918.379	3450.34795
918.556	3212.3301
918.733	3136.45614
918.911	2967.77366
919.088	3047.91022
919.265	3071.1035
919.442	3332.41977
919.62	3016.27999
919.797	3500.8715
919.974	3102.72765
920.151	3336.63243
920.328	2925.5878
920.506	3136.45614
920.683	2976.21012
920.86	2885.50581
921.037	2866.51779
921.214	2946.68147
921.391	2668.13177
921.568	2971.99192
921.745	2870.73745
921.922	3077.42861
922.099	2891.8349
922.276	3121.70043
922.453	2761.00812
922.63	3039.47583
922.807	2723.01631
922.984	2798.99557
923.161	2621.6843
923.338	2912.9309
923.514	2467.52145
923.691	2809.54686
923.868	2556.2255
924.045	2647.02003
924.222	2494.97961
924.399	2777.89197
924.575	2556.2255
924.752	2642.79754
924.929	2526.65973
925.105	2539.33105
925.282	2494.97961
925.459	2613.23865
925.635	2344.99377
925.812	2697.68607
925.989	2402.03689
926.165	2406.26201
926.342	2211.86576
926.518	2353.44506
926.695	2167.48189
926.871	2410.48708
927.048	2249.90605
927.224	2321.75188
927.401	1924.36859
927.577	2249.90605
927.754	1778.46257
927.93	2254.13257
928.107	2089.27307
928.283	2319.63893
928.459	2106.18398
928.636	2423.16206
928.812	2049.10778
928.988	2173.82267
929.165	1846.13198
929.341	2097.72859
929.517	1837.67356
929.693	1945.51234
929.87	1742.51148
930.046	2108.29781
930.222	1738.28187
930.398	2046.99374
930.574	1873.62133
930.751	2000.48327
930.927	1808.06849
931.103	1947.62668
931.279	1759.42978
931.455	1810.18317
931.631	1617.73277
931.807	1731.93742
931.983	1547.93778
932.159	1615.6178
932.335	1421.03508
932.511	1693.87013
932.687	1399.88461
932.863	1607.1579
933.039	1393.53948
933.215	1740.39667
933.391	1454.8759
933.566	1533.13258
933.742	1395.65452
933.918	1410.45983
934.094	1338.54874
934.27	1435.84043
934.445	1247.60501
934.621	1378.73421
934.797	1091.1105
934.973	1141.86307
935.148	981.15708
935.324	1160.89594
935.5	1038.24632
935.675	1099.56908
935.851	820.48959
936.027	1072.07901
936.202	917.73031
936.378	905.04575
936.553	748.6283
936.729	795.1255
936.904	676.77897
937.08	799.35276
937.255	592.26753
937.431	780.33042
937.606	569.03042
937.782	638.7464
937.957	566.91803
938.133	577.48009
938.308	459.205
938.483	459.205
938.659	452.87013
938.834	465.54001
939.009	448.64696
939.185	419.08653
939.36	389.52924
939.535	429.64347
939.71	408.52999
939.886	425.42065
940.061	296.65654
940.236	387.41813
940.411	300.87729
940.586	347.3102
940.761	275.55393
940.937	305.0981
941.112	144.76102
941.287	317.76099
941.462	214.36707
941.637	288.21528
941.812	305.0981
941.987	275.55393
942.162	212.25747
942.337	279.77431
942.512	161.63315
942.687	239.6838
942.862	191.16258
943.037	296.65654
943.212	246.01343
943.386	182.72519
943.561	231.24458
943.736	191.16258
943.911	279.77431
944.086	108.91229
944.26	208.03833
944.435	210.14789
944.61	281.88452
944.785	157.41499
944.959	203.81928
945.134	186.94385
945.309	208.03833
945.483	231.24458
945.658	201.70978
945.833	167.96055
946.007	178.50662
946.182	214.36707
946.357	212.25747
946.531	292.43587
946.706	195.3814
946.88	189.0532
947.055	174.28813
947.229	212.25747
947.404	220.69599
947.578	229.13482
947.752	195.3814
947.927	296.65654
948.101	229.13482
948.276	212.25747
948.45	237.57397
948.624	180.61589
948.799	186.94385
948.973	178.50662
949.147	127.89025
949.321	233.35436
949.496	229.13482
949.67	231.24458
949.844	260.78321
950.018	216.47669
950.193	208.03833
950.367	254.45319
950.541	235.46415
950.715	252.34322
950.889	144.76102
951.063	256.56318
951.237	170.06972
951.411	252.34322
951.585	197.49084
951.759	212.25747
951.933	205.9288
952.107	254.45319
952.281	250.23327
952.455	144.76102
952.629	271.33363
952.803	208.03833
952.977	193.27198
953.151	281.88452
953.325	246.01343
953.499	199.6003
953.672	271.33363
953.846	214.36707
954.02	237.57397
954.194	222.80567
954.368	258.67319
954.541	279.77431
954.715	216.47669
954.889	195.3814
955.062	246.01343
955.236	300.87729
955.41	239.6838
955.583	279.77431
955.757	222.80567
955.93	294.5462
956.104	157.41499
956.278	243.90353
956.451	248.12334
956.625	170.06972
956.798	220.69599
956.972	170.06972
957.145	222.80567
957.319	220.69599
957.492	239.6838
957.665	279.77431
957.839	195.3814
958.012	246.01343
958.185	186.94385
958.359	271.33363
958.532	311.42946
958.705	290.32557
958.879	241.79366
959.052	283.99475
959.225	281.88452
959.398	275.55393
959.572	222.80567
959.745	290.32557
959.918	216.47669
960.091	203.81928
960.264	214.36707
960.438	248.12334
960.611	208.03833
960.784	224.91537
960.957	222.80567
961.13	170.06972
961.303	172.17891
961.476	281.88452
961.649	182.72519
961.822	258.67319
961.995	153.19692
962.168	231.24458
962.341	136.32547
962.514	254.45319
962.686	119.45538
962.859	224.91537
963.032	186.94385
963.205	161.63315
963.378	212.25747
963.551	239.6838
963.723	119.45538
963.896	248.12334
964.069	79.39455
964.242	163.74226
964.414	170.06972
964.587	195.3814
964.76	163.74226
964.932	182.72519
965.105	138.43433
965.278	102.58669
965.45	195.3814
965.623	214.36707
965.795	96.26129
965.968	239.6838
966.14	205.9288
966.313	220.69599
966.485	178.50662
966.658	195.3814
966.83	191.16258
967.003	197.49084
967.175	161.63315
967.348	283.99475
967.52	224.91537
967.692	294.5462
967.865	119.45538
968.037	123.67278
968.209	146.86997
968.382	161.63315
968.554	104.6952
968.726	220.69599
968.898	159.52406
969.071	197.49084
969.243	111.02086
969.415	174.28813
969.587	102.58669
969.759	205.9288
969.932	125.7815
970.104	134.21663
970.276	136.32547
970.448	231.24458
970.62	189.0532
970.792	136.32547
970.964	85.71941
971.136	203.81928
971.308	178.50662
971.48	119.45538
971.652	129.99903
971.824	153.19692
971.996	35.12624
972.168	161.63315
972.339	70.96171
972.511	201.70978
972.683	165.85139
972.855	195.3814
973.027	155.30595
973.199	140.5432
973.37	102.58669
973.542	153.19692
973.714	94.15287
973.886	127.89025
974.057	45.6654
974.229	134.21663
974.401	111.02086
974.572	140.5432
974.744	129.99903
974.915	153.19692
975.087	113.12946
975.259	73.06989
975.43	136.32547
975.602	174.28813
975.773	117.34672
975.945	68.85356
976.116	155.30595
976.288	132.10782
976.459	62.52924
976.63	165.85139
976.802	113.12946
976.973	197.49084
977.145	79.39455
977.316	125.7815
977.487	85.71941
977.659	77.2863
977.83	92.04447
978.001	151.08791
978.172	98.36974
978.344	62.52924
978.515	51.98916
978.686	89.9361
978.857	35.12624
979.028	117.34672
979.2	123.67278
979.371	108.91229
979.542	62.52924
979.713	144.76102
979.884	68.85356
980.055	28.80304
980.226	89.9361
980.397	142.6521
980.568	37.23403
980.739	113.12946
980.91	123.67278
981.081	142.6521
981.252	37.23403
981.423	129.99903
981.594	125.7815
981.765	123.67278
981.936	33.01848
982.106	56.20513
982.277	113.12946
982.448	81.50281
982.619	85.71941
982.79	18.26482
982.96	81.50281
983.131	58.31314
983.302	85.71941
983.472	-17.56062
983.643	144.76102
983.814	85.71941
983.984	85.71941
984.155	115.23808
984.326	56.20513
984.496	79.39455
984.667	127.89025
984.837	43.55752
985.008	96.26129
985.178	94.15287
985.349	56.20513
985.519	92.04447
985.69	119.45538
985.86	87.82774
986.031	-30.20322
986.201	68.85356
986.371	22.48004
986.542	5.61975
986.712	62.52924
986.882	26.69535
987.053	85.71941
987.223	68.85356
987.393	104.6952
987.563	39.34183
987.734	121.56407
987.904	-15.45344
988.074	81.50281
988.244	64.63732
988.414	54.09713
988.585	96.26129
988.755	94.15287
988.925	47.77329
989.095	79.39455
989.265	56.20513
989.435	-44.95179
989.605	20.37242
989.775	-0.70246
989.945	26.69535
990.115	127.89025
990.285	-28.09618
990.455	14.04971
990.625	3.51233
990.795	22.48004
990.965	163.74226
991.134	-4.91714
991.304	35.12624
991.474	85.71941
991.644	68.85356
991.814	85.71941
991.984	26.69535
992.153	45.6654
992.323	18.26482
992.493	9.83468
992.662	-49.16544
992.832	-7.02445
993.002	5.61975
993.171	68.85356
993.341	45.6654
993.511	7.72721
993.68	28.80304
993.85	35.12624
994.019	7.72721
994.189	18.26482
994.358	35.12624
994.528	37.23403
994.697	79.39455
994.867	45.6654
995.036	9.83468
995.206	18.26482
995.375	51.98916
995.544	56.20513
995.714	-4.91714
995.883	11.94218
996.052	104.6952
996.222	39.34183
996.391	30.91075
996.56	11.94218
996.73	37.23403
996.899	70.96171
997.068	9.83468
997.237	41.44967
997.406	51.98916
997.576	-7.02445
997.745	35.12624
997.914	18.26482
998.083	-2.80981
998.252	47.77329
998.421	115.23808
998.59	81.50281
998.759	-15.45344
998.928	94.15287
999.097	-44.95179
999.266	94.15287
999.435	1.40492
999.604	30.91075
999.773	35.12624
999.942	28.80304
1000.111	37.23403
1000.28	26.69535
1000.448	47.77329
1000.617	66.74543
1000.786	-25.98912
1000.955	39.34183
1001.124	-11.23899
1001.292	100.4782
1001.461	28.80304
1001.63	43.55752
1001.798	14.04971
1001.967	-25.98912
1002.136	1.40492
1002.304	22.48004
1002.473	-55.48573
1002.642	68.85356
1002.81	45.6654
1002.979	5.61975
1003.147	28.80304
1003.316	43.55752
1003.484	28.80304
1003.653	77.2863
1003.821	-49.16544
1003.99	47.77329
1004.158	51.98916
1004.327	39.34183
1004.495	45.6654
1004.663	30.91075
1004.832	28.80304
1005	22.48004
1005.168	-11.23899
1005.337	18.26482
1005.505	47.77329
1005.673	35.12624
1005.842	-13.34623
1006.01	35.12624
1006.178	7.72721
1006.346	43.55752
1006.514	-47.05863
1006.683	-74.44523
1006.851	-49.16544
1007.019	-40.73804
1007.187	-30.20322
1007.355	-53.37899
1007.523	96.26129
1007.691	47.77329
1007.859	-21.77492
1008.027	-38.63112
1008.195	-63.91243
1008.363	35.12624
1008.531	22.48004
1008.699	-55.48573
1008.867	22.48004
1009.035	37.23403
1009.203	102.58669
1009.37	37.23403
1009.538	1.40492
1009.706	-15.45344
1009.874	26.69535
1010.042	-7.02445
1010.209	60.42118
1010.377	77.2863
1010.545	-42.84492
1010.713	26.69535
1010.88	9.83468
1011.048	5.61975
1011.216	-30.20322
1011.383	-49.16544
1011.551	-44.95179
1011.718	-0.70246
1011.886	-2.80981
1012.054	-11.23899
1012.221	-21.77492
1012.389	-7.02445
1012.556	26.69535
1012.724	3.51233
1012.891	-17.56062
1013.058	-15.45344
1013.226	35.12624
1013.393	70.96171
1013.561	35.12624
1013.728	-63.91243
1013.895	18.26482
1014.063	-4.91714
1014.23	24.58768
1014.397	-34.41722
1014.565	45.6654
1014.732	-38.63112
1014.899	28.80304
1015.066	26.69535
1015.233	-17.56062
1015.401	16.15725
1015.568	20.37242
1015.735	-2.80981
1015.902	37.23403
1016.069	37.23403
1016.236	37.23403
1016.403	-4.91714
1016.57	39.34183
1016.737	26.69535
1016.904	18.26482
1017.071	24.58768
1017.238	-49.16544
1017.405	62.52924
1017.572	35.12624
1017.739	-30.20322
1017.906	11.94218
1018.073	28.80304
1018.24	45.6654
1018.407	-21.77492
1018.573	81.50281
1018.74	-4.91714
1018.907	-11.23899
1019.074	64.63732
1019.241	20.37242
1019.407	-11.23899
1019.574	7.72721
1019.741	-11.23899
1019.907	5.61975
1020.074	-59.69913
1020.241	-47.05863
1020.407	1.40492
1020.574	28.80304
1020.74	5.61975
1020.907	-13.34623
1021.073	9.83468
1021.24	-17.56062
1021.406	28.80304
1021.573	3.51233
1021.739	-57.59244
1021.906	18.26482
1022.072	28.80304
1022.239	-15.45344
1022.405	45.6654
1022.571	35.12624
1022.738	30.91075
1022.904	9.83468
1023.07	-32.31023
1023.237	26.69535
1023.403	1.40492
1023.569	22.48004
1023.735	-32.31023
1023.902	9.83468
1024.068	11.94218
1024.234	-28.09618
1024.4	37.23403
1024.566	-66.01904
1024.732	22.48004
1024.898	9.83468
1025.065	62.52924
1025.231	89.9361
1025.397	39.34183
1025.563	54.09713
1025.729	9.83468
1025.895	-23.88203
1026.061	60.42118
1026.227	-80.7646
1026.392	-63.91243
1026.558	1.40492
1026.724	30.91075
1026.89	30.91075
1027.056	-32.31023
1027.222	-57.59244
1027.388	-19.66778
1027.553	-36.52418
1027.719	-9.13173
1027.885	26.69535
1028.051	26.69535
1028.216	-55.48573
1028.382	70.96171
1028.548	-40.73804
1028.713	37.23403
1028.879	11.94218
1029.045	-15.45344
1029.21	-49.16544
1029.376	-38.63112
1029.541	-40.73804
1029.707	-61.80579
1029.873	89.9361
1030.038	3.51233
1030.204	35.12624
1030.369	3.51233
1030.534	14.04971
1030.7	56.20513
1030.865	-66.01904
1031.031	18.26482
1031.196	-9.13173
1031.361	11.94218
1031.527	60.42118
1031.692	22.48004
1031.857	-7.02445
1032.023	9.83468
1032.188	-44.95179
1032.353	-4.91714
1032.518	98.36974
1032.684	-0.70246
1032.849	-19.66778
1033.014	-23.88203
1033.179	56.20513
1033.344	-13.34623
1033.509	-2.80981
1033.674	-15.45344
1033.839	51.98916
1034.004	70.96171
1034.17	-11.23899
1034.335	60.42118
1034.5	-19.66778
1034.664	9.83468
1034.829	30.91075
1034.994	-2.80981
1035.159	26.69535
1035.324	-72.33872
1035.489	11.94218
1035.654	14.04971
1035.819	18.26482
1035.984	30.91075
1036.148	-32.31023
1036.313	-30.20322
1036.478	-40.73804
1036.643	30.91075
1036.807	-0.70246
1036.972	60.42118
1037.137	28.80304
1037.301	39.34183
1037.466	-7.02445
1037.631	1.40492
1037.795	60.42118
1037.96	7.72721
1038.124	-9.13173
1038.289	9.83468
1038.454	-0.70246
1038.618	-15.45344
1038.783	85.71941
1038.947	43.55752
1039.111	18.26482
1039.276	28.80304
1039.44	-55.48573
1039.605	30.91075
1039.769	68.85356
1039.933	14.04971
1040.098	22.48004
1040.262	-17.56062
1040.426	-7.02445
1040.591	-59.69913
1040.755	37.23403
1040.919	7.72721
1041.083	-55.48573
1041.248	-4.91714
1041.412	49.88122
1041.576	18.26482
1041.74	22.48004
1041.904	16.15725
1042.068	33.01848
1042.232	43.55752
1042.397	22.48004
1042.561	7.72721
1042.725	-2.80981
1042.889	9.83468
1043.053	49.88122
1043.217	1.40492
1043.381	-15.45344
1043.544	-15.45344
1043.708	-19.66778
1043.872	-11.23899
1044.036	-23.88203
1044.2	35.12624
1044.364	-21.77492
1044.528	3.51233
1044.691	-30.20322
1044.855	-11.23899
1045.019	45.6654
1045.183	-68.12563
1045.346	-2.80981
1045.51	26.69535
1045.674	35.12624
1045.837	-49.16544
1046.001	-21.77492
1046.165	-36.52418
1046.328	-13.34623
1046.492	37.23403
1046.655	-59.69913
1046.819	64.63732
1046.983	-44.95179
1047.146	3.51233
1047.31	18.26482
1047.473	11.94218
1047.636	28.80304
1047.8	9.83468
1047.963	-36.52418
1048.127	39.34183
1048.29	22.48004
