Data from mixed_try1_USB4F045381__38__00060.txt Node

Date: Thu Apr 03 19:38:34 EDT 2025
User: mmckonesweet
Spectrometer: USB4F04538
Trigger mode: 4
Integration Time (sec): 2.700000E-3
Scans to average: 1
Electric dark correction enabled: true
Nonlinearity correction enabled: true
Boxcar width: 0
XAxis mode: Wavelengths
Number of Pixels in Spectrum: 3648
>>>>>Begin Spectral Data<<<<<
345.52	-68.12563
345.736	-68.12563
345.952	-68.12563
346.168	-11.23899
346.384	-89.19007
346.6	35.12624
346.816	1.40492
347.032	7.72721
347.248	9.83468
347.464	-17.56062
347.68	9.83468
347.896	-17.56062
348.112	24.58768
348.328	-0.70246
348.544	-15.45344
348.76	-25.98912
348.975	-11.23899
349.191	-34.41722
349.407	-15.45344
349.623	16.15725
349.839	11.94218
350.055	108.91229
350.27	-34.41722
350.486	-9.13173
350.702	-53.37899
350.918	-91.29638
351.133	66.74543
351.349	-42.84492
351.565	58.31314
351.781	66.74543
351.996	66.74543
352.212	-47.05863
352.428	58.31314
352.644	18.26482
352.859	-51.27223
353.075	7.72721
353.291	-13.34623
353.506	20.37242
353.722	60.42118
353.938	73.06989
354.153	125.7815
354.369	-23.88203
354.584	-28.09618
354.8	-21.77492
355.016	11.94218
355.231	-9.13173
355.447	49.88122
355.662	26.69535
355.878	11.94218
356.093	-38.63112
356.309	106.80373
356.524	-7.02445
356.74	37.23403
356.955	26.69535
357.171	-76.55171
357.386	-21.77492
357.602	-17.56062
357.817	20.37242
358.033	45.6654
358.248	70.96171
358.464	11.94218
358.679	43.55752
358.895	26.69535
359.11	66.74543
359.325	-28.09618
359.541	24.58768
359.756	-19.66778
359.972	49.88122
360.187	-9.13173
360.402	41.44967
360.618	33.01848
360.833	35.12624
361.048	16.15725
361.264	-2.80981
361.479	-11.23899
361.694	-32.31023
361.909	37.23403
362.125	3.51233
362.34	-49.16544
362.555	-15.45344
362.77	9.83468
362.986	7.72721
363.201	39.34183
363.416	58.31314
363.631	24.58768
363.847	-51.27223
364.062	43.55752
364.277	49.88122
364.492	-9.13173
364.707	-25.98912
364.922	96.26129
365.138	-74.44523
365.353	51.98916
365.568	58.31314
365.783	60.42118
365.998	7.72721
366.213	7.72721
366.428	3.51233
366.643	45.6654
366.858	75.17808
367.073	18.26482
367.288	-34.41722
367.503	-15.45344
367.718	9.83468
367.933	41.44967
368.148	45.6654
368.363	20.37242
368.578	54.09713
368.793	-40.73804
369.008	3.51233
369.223	39.34183
369.438	1.40492
369.653	127.89025
369.868	3.51233
370.083	85.71941
370.298	26.69535
370.513	-15.45344
370.728	70.96171
370.943	41.44967
371.157	-11.23899
371.372	9.83468
371.587	28.80304
371.802	-66.01904
372.017	-15.45344
372.232	47.77329
372.446	-0.70246
372.661	-21.77492
372.876	43.55752
373.091	62.52924
373.306	28.80304
373.52	3.51233
373.735	-25.98912
373.95	108.91229
374.165	28.80304
374.379	16.15725
374.594	7.72721
374.809	45.6654
375.023	26.69535
375.238	1.40492
375.453	33.01848
375.667	49.88122
375.882	-21.77492
376.097	119.45538
376.311	28.80304
376.526	11.94218
376.741	28.80304
376.955	33.01848
377.17	1.40492
377.384	7.72721
377.599	11.94218
377.813	11.94218
378.028	-7.02445
378.242	26.69535
378.457	16.15725
378.672	-57.59244
378.886	9.83468
379.101	33.01848
379.315	100.4782
379.53	-25.98912
379.744	66.74543
379.958	-17.56062
380.173	-11.23899
380.387	54.09713
380.602	100.4782
380.816	92.04447
381.031	66.74543
381.245	-4.91714
381.459	33.01848
381.674	-13.34623
381.888	35.12624
382.103	75.17808
382.317	3.51233
382.531	-0.70246
382.746	1.40492
382.96	20.37242
383.174	-32.31023
383.388	51.98916
383.603	-11.23899
383.817	-4.91714
384.031	73.06989
384.246	62.52924
384.46	47.77329
384.674	-17.56062
384.888	16.15725
385.103	-72.33872
385.317	37.23403
385.531	24.58768
385.745	58.31314
385.959	87.82774
386.174	-11.23899
386.388	28.80304
386.602	58.31314
386.816	58.31314
387.03	9.83468
387.244	-17.56062
387.458	7.72721
387.672	-49.16544
387.887	100.4782
388.101	51.98916
388.315	33.01848
388.529	-0.70246
388.743	51.98916
388.957	-59.69913
389.171	1.40492
389.385	24.58768
389.599	3.51233
389.813	30.91075
390.027	134.21663
390.241	-21.77492
390.455	-4.91714
390.669	-42.84492
390.883	37.23403
391.097	45.6654
391.311	60.42118
391.525	7.72721
391.738	-7.02445
391.952	-15.45344
392.166	100.4782
392.38	24.58768
392.594	70.96171
392.808	28.80304
393.022	30.91075
393.236	26.69535
393.449	75.17808
393.663	51.98916
393.877	16.15725
394.091	37.23403
394.305	-7.02445
394.518	11.94218
394.732	56.20513
394.946	51.98916
395.16	-7.02445
395.373	28.80304
395.587	92.04447
395.801	100.4782
396.015	-76.55171
396.228	18.26482
396.442	18.26482
396.656	24.58768
396.869	14.04971
397.083	60.42118
397.297	83.6111
397.51	-23.88203
397.724	-13.34623
397.938	7.72721
398.151	-0.70246
398.365	60.42118
398.578	-30.20322
398.792	-0.70246
399.005	58.31314
399.219	83.6111
399.433	-0.70246
399.646	24.58768
399.86	70.96171
400.073	-23.88203
400.287	-0.70246
400.5	58.31314
400.714	16.15725
400.927	104.6952
401.141	20.37242
401.354	24.58768
401.567	-0.70246
401.781	66.74543
401.994	22.48004
402.208	58.31314
402.421	28.80304
402.635	66.74543
402.848	117.34672
403.061	49.88122
403.275	117.34672
403.488	47.77329
403.701	58.31314
403.915	-42.84492
404.128	-0.70246
404.341	33.01848
404.555	41.44967
404.768	-0.70246
404.981	16.15725
405.195	-0.70246
405.408	20.37242
405.621	-13.34623
405.834	54.09713
406.048	-4.91714
406.261	41.44967
406.474	28.80304
406.687	1.40492
406.9	73.06989
407.114	16.15725
407.327	41.44967
407.54	87.82774
407.753	20.37242
407.966	-0.70246
408.179	-0.70246
408.392	104.6952
408.605	83.6111
408.819	75.17808
409.032	87.82774
409.245	9.83468
409.458	62.52924
409.671	-9.13173
409.884	24.58768
410.097	134.21663
410.31	85.71941
410.523	70.96171
410.736	1.40492
410.949	-21.77492
411.162	41.44967
411.375	58.31314
411.588	1.40492
411.801	-9.13173
412.014	33.01848
412.227	20.37242
412.44	-9.13173
412.653	33.01848
412.865	85.71941
413.078	24.58768
413.291	66.74543
413.504	77.2863
413.717	28.80304
413.93	1.40492
414.143	73.06989
414.356	92.04447
414.568	5.61975
414.781	68.85356
414.994	41.44967
415.207	121.56407
415.42	26.69535
415.632	7.72721
415.845	60.42118
416.058	41.44967
416.271	37.23403
416.483	18.26482
416.696	20.37242
416.909	43.55752
417.121	22.48004
417.334	87.82774
417.547	75.17808
417.759	54.09713
417.972	16.15725
418.185	47.77329
418.397	68.85356
418.61	41.44967
418.823	37.23403
419.035	75.17808
419.248	66.74543
419.46	54.09713
419.673	60.42118
419.885	7.72721
420.098	24.58768
420.311	3.51233
420.523	49.88122
420.736	7.72721
420.948	18.26482
421.161	92.04447
421.373	75.17808
421.586	51.98916
421.798	87.82774
422.01	7.72721
422.223	18.26482
422.435	-30.20322
422.648	20.37242
422.86	33.01848
423.073	-7.02445
423.285	-0.70246
423.497	83.6111
423.71	60.42118
423.922	-40.73804
424.134	96.26129
424.347	75.17808
424.559	70.96171
424.771	1.40492
424.984	-9.13173
425.196	16.15725
425.408	79.39455
425.621	85.71941
425.833	-11.23899
426.045	58.31314
426.257	111.02086
426.47	83.6111
426.682	186.94385
426.894	75.17808
427.106	-32.31023
427.318	92.04447
427.531	28.80304
427.743	51.98916
427.955	70.96171
428.167	108.91229
428.379	54.09713
428.591	94.15287
428.804	83.6111
429.016	35.12624
429.228	49.88122
429.44	73.06989
429.652	58.31314
429.864	35.12624
430.076	96.26129
430.288	138.43433
430.5	81.50281
430.712	94.15287
430.924	119.45538
431.136	58.31314
431.348	54.09713
431.56	111.02086
431.772	96.26129
431.984	79.39455
432.196	92.04447
432.408	125.7815
432.62	100.4782
432.832	92.04447
433.044	144.76102
433.256	127.89025
433.468	104.6952
433.679	94.15287
433.891	20.37242
434.103	94.15287
434.315	85.71941
434.527	195.3814
434.739	111.02086
434.95	60.42118
435.162	142.6521
435.374	117.34672
435.586	87.82774
435.798	79.39455
436.009	85.71941
436.221	148.97893
436.433	26.69535
436.645	117.34672
436.856	79.39455
437.068	58.31314
437.28	123.67278
437.491	172.17891
437.703	108.91229
437.915	96.26129
438.126	159.52406
438.338	60.42118
438.55	108.91229
438.761	163.74226
438.973	129.99903
439.184	195.3814
439.396	134.21663
439.608	121.56407
439.819	123.67278
440.031	100.4782
440.242	174.28813
440.454	153.19692
440.665	129.99903
440.877	134.21663
441.088	146.86997
441.3	163.74226
441.511	121.56407
441.723	161.63315
441.934	104.6952
442.146	161.63315
442.357	167.96055
442.569	136.32547
442.78	100.4782
442.991	75.17808
443.203	201.70978
443.414	155.30595
443.626	178.50662
443.837	243.90353
444.048	186.94385
444.26	176.39736
444.471	159.52406
444.682	138.43433
444.894	161.63315
445.105	151.08791
445.316	167.96055
445.528	277.66411
445.739	167.96055
445.95	201.70978
446.161	248.12334
446.373	184.83451
446.584	117.34672
446.795	277.66411
447.006	233.35436
447.217	125.7815
447.429	193.27198
447.64	281.88452
447.851	195.3814
448.062	176.39736
448.273	165.85139
448.484	227.02509
448.695	195.3814
448.907	250.23327
449.118	258.67319
449.329	260.78321
449.54	273.44377
449.751	260.78321
449.962	269.22351
450.173	248.12334
450.384	269.22351
450.595	294.5462
450.806	311.42946
451.017	277.66411
451.228	254.45319
451.439	239.6838
451.65	326.20327
451.861	345.19943
452.072	302.98769
452.283	267.11341
452.494	345.19943
452.705	302.98769
452.915	311.42946
453.126	302.98769
453.337	279.77431
453.548	290.32557
453.759	324.09267
453.97	376.86282
454.181	389.52924
454.391	355.75346
454.602	332.53516
454.813	364.197
455.024	404.30748
455.235	269.22351
455.445	412.75256
455.656	408.52999
455.867	406.41873
456.078	366.30793
456.288	397.97385
456.499	442.31232
456.71	381.08489
456.921	374.75181
457.131	514.11286
457.342	414.86386
457.553	457.09336
457.763	558.46863
457.974	533.12172
458.184	484.54585
458.395	505.66485
458.606	469.76342
458.816	526.78531
459.027	594.38007
459.237	573.25523
459.448	623.95701
459.659	547.90718
459.869	657.76221
460.08	588.04248
460.29	693.68355
460.501	738.06144
460.711	664.10102
460.922	645.0849
461.132	636.6336
461.343	712.70206
461.553	733.83477
461.764	750.74171
461.974	649.31062
462.184	651.4235
462.395	761.30888
462.605	797.23912
462.816	771.8763
463.026	784.55754
463.236	852.19655
463.447	860.65207
463.657	818.37586
463.867	962.12838
464.078	898.70358
464.288	1017.10163
464.498	998.07193
464.709	1042.47532
464.919	949.44289
465.129	1038.24632
465.339	1057.27703
465.55	1025.55943
465.76	964.24265
465.97	1253.94978
466.18	1165.12552
466.391	1353.35386
466.601	1135.51886
466.811	1497.1769
467.021	1359.69893
467.231	1325.8587
467.441	1251.83485
467.651	1387.19436
467.862	1406.22974
468.072	1717.1336
468.282	1410.45983
468.492	1562.74293
468.702	1736.16705
468.912	1679.06591
469.122	1554.28285
469.332	1799.60974
469.542	1816.52717
469.752	2049.10778
469.962	1844.01738
470.172	2002.59746
470.382	1943.39799
470.592	2142.11804
470.802	2146.34543
471.012	2150.57279
471.222	2142.11804
471.432	2306.96098
471.642	2205.52543
471.852	2494.97961
472.062	2332.31652
472.272	2594.23524
472.482	2429.49941
472.691	2651.24248
472.901	2723.01631
473.111	2480.19468
473.321	2649.13126
473.531	2855.96839
473.741	2936.13482
473.95	3001.51805
474.16	2843.30864
474.37	3119.5924
474.58	3184.93361
474.79	3429.29341
474.999	3085.86188
475.209	3338.73874
475.419	3269.22153
475.628	3515.60557
475.838	3353.4824
476.048	3589.26238
476.258	3736.50699
476.467	3723.8897
476.677	3606.09503
476.886	3913.075
477.096	4030.70842
477.306	4083.20258
477.515	3896.26504
477.725	4009.70715
477.935	4097.89862
478.144	4183.95484
478.354	4030.70842
478.563	4492.20259
478.773	4490.10725
478.982	4479.63025
479.192	4446.10014
479.401	4571.80892
479.611	4640.91468
479.82	4864.81622
480.03	4902.45632
480.239	4940.089
480.449	4814.61791
480.658	5157.37593
480.868	5186.60693
481.077	5416.11979
481.287	5215.83337
481.496	5318.08987
481.705	5411.94936
481.915	5549.52387
482.124	5618.27266
482.333	5824.36487
482.543	5751.53042
482.752	5907.56885
482.961	6088.40724
483.171	6327.17346
483.38	5703.65204
483.589	6285.67116
483.799	6206.791
484.008	6472.35802
484.217	6291.8971
484.426	6493.08936
484.636	6318.87375
484.845	6691.99256
485.054	6513.81839
485.263	6706.48762
485.472	6596.71133
485.682	7045.7664
485.891	6836.8926
486.1	6989.9514
486.309	6944.46038
486.518	7314.27773
486.727	7227.56886
486.936	7431.89224
487.146	7380.31565
487.355	7413.32623
487.564	7415.38921
487.773	7617.45622
487.982	7477.26842
488.191	7794.61179
488.4	7691.63335
488.609	7837.84714
488.818	7763.72376
489.027	8142.29635
489.236	8138.18513
489.445	8587.89791
489.654	8101.18055
489.863	8323.11145
490.072	8251.21466
490.281	8472.99095
490.49	8403.19686
490.698	8530.45185
490.907	8536.6075
491.116	8979.37631
491.325	8723.24848
491.534	8698.64529
491.743	8911.78579
491.952	9124.73359
492.16	8788.84408
492.369	9255.68566
492.578	9402.92476
492.787	9339.54064
492.996	9480.60007
493.204	9501.03707
493.413	9582.76917
493.622	9590.94099
493.831	9531.68958
494.039	9595.0268
494.248	9509.21143
494.457	9866.59527
494.665	9786.99025
494.874	9940.05682
495.083	10093.04143
495.291	10007.37998
495.5	9813.52778
495.709	10219.44882
495.917	9752.28348
496.126	10194.98702
496.335	10256.13783
496.543	10404.8876
496.752	10425.25881
496.96	10382.47777
497.169	10309.12534
497.377	10457.85004
497.586	10443.59178
497.794	10787.65528
498.003	10716.42825
498.211	10846.66099
498.42	10610.57794
498.628	11074.45494
498.837	10767.30619
499.045	10840.55741
499.254	10805.96845
499.462	11027.68725
499.671	11159.84203
499.879	11127.31585
500.087	11602.75242
500.296	11401.67229
500.504	11371.19736
500.713	11480.89681
500.921	11310.24081
501.129	11554.01422
501.338	11106.98559
501.546	11882.89721
501.754	11306.17671
501.962	11759.08558
502.171	11604.78307
502.379	12106.08696
502.587	11720.51476
502.795	11974.21378
503.004	11832.15856
503.212	12124.34375
503.42	11846.36591
503.628	12335.26776
503.837	12248.06828
504.045	12377.84887
504.253	12193.30835
504.461	12296.73937
504.669	12369.73842
504.877	12400.15206
505.085	12424.48188
505.294	12596.79122
505.502	12479.22048
505.71	12811.60907
505.918	12584.62971
506.126	12771.08238
506.334	12710.28809
506.542	13056.74978
506.75	12610.97936
506.958	12846.05501
507.166	12627.19402
507.374	12896.70794
507.582	13093.21065
507.79	13101.31286
507.998	13153.97536
508.206	13180.30543
508.414	12846.05501
508.622	13202.58413
508.83	13101.31286
509.037	13480.01202
509.245	12848.08119
509.453	13455.71477
509.661	13583.26939
509.869	13581.24483
510.077	13807.97558
510.285	13556.94977
510.492	13504.30872
510.7	13820.12078
510.908	13621.73547
511.116	13860.604
511.324	13945.61518
511.531	13939.54311
511.739	13828.21751
511.947	13812.02399
512.155	13737.1265
512.362	13848.45915
512.57	13759.39375
512.778	13965.85524
512.985	14160.14764
513.193	14046.81302
513.401	14224.90728
513.608	13925.37485
513.816	14330.13751
514.024	14200.62265
514.231	14277.52301
514.439	14273.47569
514.646	14560.81928
514.854	14332.16112
515.061	14309.90131
515.269	14451.55132
515.477	14597.24112
515.684	14451.55132
515.892	14255.26266
516.099	14676.15388
516.307	14722.69148
516.514	15262.91147
516.722	14943.23383
516.929	14945.25713
517.136	15111.1661
517.344	14969.53661
517.551	15034.28167
517.759	15236.60891
517.966	14860.2784
518.173	14876.4649
518.381	15050.46789
518.588	15380.26185
518.796	14920.97758
519.003	15447.03071
519.21	15380.26185
519.418	15503.6835
519.625	15335.74952
519.832	15784.9327
520.039	15378.23855
520.247	15604.85045
520.454	15588.66362
520.661	16137.03017
520.868	16080.36794
521.076	16045.96645
521.283	15740.41728
521.49	15936.6939
521.697	15888.12958
521.904	15884.08258
522.112	15847.65985
522.319	16130.95916
522.526	15892.17658
522.733	16242.26343
522.94	16019.65972
523.147	16181.55138
523.354	16076.32068
523.561	16436.55296
523.768	16286.7866
523.975	16537.75264
524.183	16262.50112
524.39	16649.0785
524.597	16673.36868
524.804	16847.45832
525.011	16679.44128
525.218	16750.28981
525.425	16839.36073
525.632	16586.33037
525.838	16734.0956
526.045	16802.92205
526.252	17051.93632
526.459	17446.80148
526.666	17183.54571
526.873	17424.524
527.08	17199.74462
527.287	17191.64514
527.494	17047.88698
527.701	17580.47434
527.907	17230.11807
528.114	17517.68688
528.321	17787.08758
528.528	17594.65258
528.735	17602.75451
528.941	17827.60408
529.148	17444.77624
529.355	17641.23937
529.562	17436.67531
529.768	17831.6558
529.975	17432.62486
530.182	17716.18698
530.388	17396.1714
530.595	17770.88136
530.802	17874.19975
531.008	18216.63393
531.215	18354.44749
531.422	18242.97931
531.628	18224.74014
531.835	18170.02441
532.042	18322.01921
532.248	18512.5492
532.455	18658.51001
532.661	18557.1462
532.868	18788.26997
533.074	18875.46157
533.281	18676.75653
533.487	18770.0215
533.694	18697.03082
533.9	19210.10306
534.107	18678.78394
534.313	18652.42791
534.52	18828.82329
534.726	18624.04522
534.933	18946.43692
535.139	18972.80045
535.345	19199.96078
535.552	19299.35955
535.758	19226.33092
535.965	19195.9039
536.171	18942.38106
536.377	19648.34818
536.584	19396.73937
536.79	19626.02545
536.996	19664.58321
537.203	19559.0603
537.409	19583.41074
537.615	19398.76822
537.821	19688.93626
538.028	20216.73404
538.234	19727.49648
538.44	20157.85021
538.646	19920.32031
538.853	19849.27554
539.059	19613.84963
539.265	20220.79513
539.471	20084.75795
539.677	20115.21239
539.883	20202.52038
540.09	20137.54625
540.296	20153.78938
540.502	20598.54936
540.708	20702.15241
540.914	20720.43643
541.12	20606.6747
541.326	20740.75239
541.532	20714.34172
541.738	20817.95685
541.944	20549.79874
542.15	21086.18703
542.356	20706.2155
542.562	20824.05219
542.768	20907.35894
542.974	20887.03958
543.18	21008.96191
543.386	21092.284
543.592	21472.40048
543.798	21513.06295
544.004	21330.0944
544.21	21944.18159
544.415	21047.57373
544.621	21246.75282
544.827	21147.15839
545.033	21486.63216
545.239	21401.24499
545.445	21999.10066
545.651	21273.17746
545.856	21744.86916
546.062	21403.27793
546.268	21409.3768
546.474	21836.38558
546.679	21633.02646
546.885	21639.12667
547.091	22025.54417
547.297	21655.39405
547.502	22019.44176
547.708	21740.80195
547.914	21834.3518
548.119	22047.91994
548.325	22100.80995
548.531	21822.14918
548.736	21911.63826
548.942	22045.88576
549.147	21866.89279
549.353	22092.67286
549.559	22316.46453
549.764	22064.19352
549.97	22157.77125
550.175	22528.09017
550.381	22741.78983
550.586	22255.42599
550.792	22591.1784
550.997	22190.32188
551.203	22546.40575
551.408	22499.59983
551.614	22365.29773
551.819	23043.0693
552.025	23181.51961
552.23	23317.94861
552.435	23438.09942
552.641	23289.43987
552.846	22939.24164
553.052	23332.20322
553.257	23434.02633
553.462	23397.3691
553.668	23436.06288
553.873	23244.64168
554.078	23456.42847
554.283	23550.11421
554.489	23596.95951
554.694	23609.18029
554.899	23653.99074
555.105	23572.51828
555.31	23876.02743
555.515	23607.14349
555.72	23672.32271
555.925	23596.95951
556.131	23894.36229
556.336	23827.13562
556.541	24479.15851
556.746	24026.78758
556.951	23558.2611
557.156	23562.33456
557.361	23898.43673
557.567	24175.5255
557.772	24047.16176
557.977	23918.80913
558.182	23918.80913
558.387	24157.18715
558.592	24244.80568
558.797	24136.81147
559.002	23981.96537
559.207	24244.80568
559.412	24519.91903
559.617	24479.15851
559.822	24642.20665
560.027	23975.85335
560.232	24483.23451
560.437	24179.60072
560.642	24077.72356
560.847	24356.88313
561.051	24617.74841
561.256	24632.01568
561.461	24913.309
561.666	24880.69295
561.871	24752.27315
562.076	24738.00487
562.281	24640.16845
562.485	24393.56476
562.69	24691.12421
562.895	24530.10932
563.1	25076.39811
563.305	24523.99514
563.509	24888.84691
563.714	24619.78658
563.919	25243.57936
564.123	25011.16071
564.328	24697.23901
564.533	24727.81331
564.737	24493.42457
564.942	25088.63038
565.147	25086.59166
565.351	25129.40519
565.556	25031.54715
565.761	25051.93381
565.965	25333.2924
566.17	25074.35941
566.374	25457.67405
566.579	25384.26755
566.784	25376.11144
566.988	25410.77514
567.193	25553.51431
567.397	25316.98063
567.602	25490.30002
567.806	25380.18949
568.011	25943.03732
568.215	25520.88734
568.42	25794.15383
568.624	25708.49938
568.828	25473.98697
569.033	25580.02411
569.237	26018.50254
569.442	25949.15603
569.646	25769.68079
569.85	26244.91267
570.055	26444.8236
570.259	26275.51025
570.463	26136.80426
570.668	25989.94784
570.872	25930.79995
571.076	26016.4629
571.281	26438.70365
571.485	25940.99775
571.689	26063.37491
571.893	26114.36728
572.098	26540.70476
572.302	26589.66669
572.506	26489.70371
572.71	26650.87035
572.914	26559.06538
573.119	26042.97827
573.323	26934.46484
573.527	26583.5464
573.731	27058.92874
573.935	27042.60531
574.139	26589.66669
574.343	26489.70371
574.547	26793.68418
574.751	26789.60368
574.955	26577.42612
575.159	27269.10063
575.364	27256.85722
575.568	26936.50519
575.772	26969.15098
575.976	26887.53719
576.18	26795.72443
576.383	26852.85203
576.587	27360.92769
576.791	27160.95215
576.995	27050.76701
577.199	27114.02096
577.403	26997.71634
577.607	27567.03782
577.811	27671.11802
578.015	27403.78122
578.219	27507.85638
578.422	27389.49665
578.626	27779.2831
578.83	27418.06585
579.034	27626.22029
579.238	27842.55101
579.442	27626.22029
579.645	27542.54882
579.849	27248.69497
580.053	28034.4024
580.257	27432.35054
580.46	27569.07858
580.664	27987.45911
580.868	27732.34313
581.071	27834.38734
581.275	28156.86596
581.479	27932.35253
581.682	27652.7507
581.886	27607.85321
582.09	27583.36392
582.293	28138.49617
582.497	28316.07451
582.7	28118.0854
582.904	28211.97586
583.107	28248.71624
583.311	27926.22963
583.515	28409.96984
583.718	28420.17599
583.922	28948.89062
584.125	28603.89123
584.329	28240.55168
584.532	28791.69786
584.735	28477.33092
584.939	28016.03322
585.142	28795.78071
585.346	28507.94998
585.549	28689.62794
585.753	28546.73446
585.956	28754.95239
586.159	29106.08954
586.363	29375.58774
586.566	29151.00465
586.769	28975.43027
586.973	29097.92321
587.176	29291.87802
587.379	28550.81706
587.582	29040.75937
587.786	28836.60945
587.989	29447.04865
588.192	29163.25431
588.395	29063.2165
588.599	29200.00352
588.802	29545.0543
589.005	29347.00373
589.208	29669.60669
589.411	29391.92155
589.615	29779.86953
589.818	29459.29923
590.021	29559.34699
590.224	29534.84526
590.427	29896.26156
590.63	29945.26981
590.833	29969.77418
591.036	29837.04412
591.239	29867.67371
591.442	29206.12842
591.645	30198.48955
591.848	30192.36306
592.051	29685.94172
592.254	29459.29923
592.457	30229.12219
592.66	30002.44692
592.863	30351.6554
593.066	30253.62848
593.269	30531.37875
593.472	30110.67747
593.675	30815.28017
593.878	30222.99564
594.081	30774.42947
594.284	30645.75325
594.486	30868.38691
594.689	30788.72715
594.892	30494.61637
595.095	30858.17401
595.298	30549.76009
595.5	30709.06946
595.703	31270.80406
595.906	30754.00432
596.109	30555.88723
596.311	30749.9193
596.514	30774.42947
596.717	30613.07441
596.92	31037.9263
597.122	31084.90884
597.325	30451.72744
597.528	30835.70573
597.73	31111.46454
597.933	30717.23938
598.136	31180.91909
598.338	30886.77023
598.541	31091.03706
598.743	31056.31068
598.946	30623.28651
599.148	30896.98323
599.351	31103.29353
599.554	30629.41379
599.756	31211.56136
599.959	31140.06326
600.161	31270.80406
600.363	31313.70476
600.566	30982.77385
600.768	31344.34854
600.971	31820.39674
601.173	31738.66501
601.376	31554.77902
601.578	31358.64909
601.78	31771.35736
601.983	31661.02253
602.185	31867.39381
602.388	31658.97935
602.59	31738.66501
602.792	31323.91931
602.995	31994.08654
603.197	31507.78817
603.399	31738.66501
603.601	31546.60664
603.804	31501.65899
604.006	31377.03563
604.208	31916.43529
604.41	31846.96018
604.613	32263.84474
604.815	31842.87348
605.017	32359.90375
605.219	31981.82563
605.421	31736.62176
605.623	31493.48678
605.826	32049.2615
606.028	31438.32505
606.23	31816.31009
606.432	31777.48722
606.634	31924.60898
606.836	31773.40064
607.038	32204.57662
607.24	31716.1893
607.442	32208.66402
607.644	32304.72033
607.846	32274.06356
608.048	32165.74674
608.25	32122.83036
608.452	32435.52806
608.654	32296.54515
608.856	32155.52848
609.058	32308.80794
609.26	32077.87131
609.462	32386.47411
609.664	32533.63984
609.866	32468.23141
610.067	32470.27538
610.269	32355.81604
610.471	32073.78417
610.673	32214.79514
610.875	32529.55174
611.077	32580.6536
611.278	32106.4815
611.48	32310.85175
611.682	32102.39431
611.884	32940.45338
612.085	32537.72794
612.287	32742.14519
612.489	32128.96122
612.69	32306.76414
612.892	32693.08287
613.094	32727.8352
613.295	32235.23233
613.497	32494.8033
613.699	31989.99957
613.9	32288.36999
614.102	32312.89556
614.304	32462.09948
614.505	32194.35816
614.707	32415.08876
614.908	32319.02699
615.11	32427.35231
615.311	32431.44018
615.513	32075.82774
615.714	32124.87398
615.916	32492.75929
616.117	32282.23865
616.319	31926.6524
616.52	31893.95781
616.722	32272.01979
616.923	32265.8885
617.124	32580.6536
617.326	32288.36999
617.527	32476.40733
617.729	32453.92362
617.93	32472.31936
618.131	32476.40733
618.333	32535.68389
618.534	32758.49961
618.735	33083.57756
618.937	32682.86173
619.138	32664.46382
619.339	32449.8357
619.54	32785.07588
619.742	32623.58029
619.943	32325.15845
620.144	32580.6536
620.345	32870.94057
620.546	33034.50494
620.748	33187.86212
620.949	32523.41962
621.15	32942.49792
621.351	32498.89132
621.552	32278.1511
621.753	32169.83406
621.954	33120.38306
622.155	32351.72833
622.356	33253.2993
622.558	33034.50494
622.759	33304.42412
622.96	32815.74133
623.161	32811.65257
623.362	32597.0065
623.563	33228.76002
623.764	32946.58701
623.965	33003.83534
624.166	32768.7212
624.366	32666.50803
624.567	32682.86173
624.768	32875.02948
624.969	32556.12453
625.17	32511.15543
625.371	32691.03863
625.572	32789.16458
625.773	33018.14774
625.973	33106.0697
626.174	33063.13045
626.375	32889.34073
626.576	32866.85168
626.777	33161.2791
626.977	33165.36876
627.178	33159.23427
627.379	32719.65812
627.58	33345.3253
627.78	33140.83094
627.981	32836.18528
628.182	33204.22115
628.382	32862.76279
628.583	32877.07394
628.784	32617.44784
628.984	32554.08045
629.185	33110.15922
629.386	32392.60578
629.586	33400.54375
629.787	33028.37097
629.987	33161.2791
630.188	32764.63256
630.388	33449.62865
630.589	32872.98503
630.79	33173.54813
630.99	33018.14774
631.191	33351.46057
631.391	33300.33407
631.591	33631.66729
631.792	32960.8989
631.992	32956.80977
632.193	33412.81481
632.393	33373.95682
632.594	33639.84939
632.794	33335.09989
632.994	33099.93545
633.195	32854.58505
633.395	33189.90699
633.595	33204.22115
633.796	33337.14497
633.996	33339.19005
634.196	33224.67018
634.397	33856.69404
634.597	33492.57937
634.797	34008.09872
634.997	33832.14371
635.198	33637.80386
635.398	33633.71281
635.598	34155.43006
635.798	33903.75021
635.998	34116.54912
636.199	33617.34874
636.399	33789.1818
636.599	33175.59298
636.799	33733.94722
636.999	33316.69435
637.199	33746.22136
637.399	33913.98006
637.599	33807.59386
637.799	33752.35848
637.999	34139.05898
638.199	33846.46467
638.399	34198.40528
638.599	33936.48602
638.799	34198.40528
638.999	33807.59386
639.199	34296.64058
639.399	33852.60228
639.599	34087.90086
639.799	33056.99636
639.999	33809.63966
640.199	33380.09222
640.399	33780.99874
640.599	32709.43682
640.799	34272.08094
640.998	34286.40733
641.198	34059.25331
641.398	34085.85458
641.598	34321.20078
641.798	33793.27334
641.997	34308.92061
642.197	33983.54531
642.397	34317.10738
642.597	34032.65264
642.796	33645.98599
642.996	33756.44991
643.196	34061.29954
643.395	33553.9399
643.595	33811.68547
643.795	33856.69404
643.994	34225.00981
644.194	34014.23715
644.394	33920.118
644.593	34057.20708
644.793	34769.5259
644.992	33854.64816
645.192	34100.1786
645.392	34200.45176
645.591	33987.63751
645.791	33956.94635
645.99	34020.37562
646.19	33566.21234
646.389	34372.36966
646.589	34501.32615
646.788	34661.00892
646.987	33961.03846
647.187	34321.20078
647.386	34519.74981
647.586	34747.00252
647.785	34507.46734
647.984	34697.8624
648.184	34521.7969
648.383	34603.684
648.582	34257.75473
648.782	34695.81495
648.981	33944.67011
649.18	34112.45647
649.38	34888.2943
649.579	34867.81593
649.778	34691.72006
649.977	34632.34605
650.177	34319.15408
650.376	34550.45664
650.575	34094.03971
650.774	34444.0102
650.973	34482.90282
651.173	34562.73963
651.372	34605.73126
651.571	34188.17294
651.77	34779.76397
651.969	35017.31839
652.168	34484.94984
652.367	34464.47982
652.566	34263.89451
652.765	34558.64528
652.964	34583.21161
653.163	34661.00892
653.362	34179.98713
653.561	34267.98772
653.76	34564.78681
653.959	34278.2208
654.158	35166.8454
654.357	34454.24496
654.556	34683.53033
654.755	34814.57424
654.954	34663.0563
655.153	34345.76154
655.352	34456.29193
655.551	34863.72031
655.749	35236.49675
655.948	35312.30019
656.147	35045.99287
656.346	35263.12963
656.545	34994.78907
656.743	34802.28812
656.942	34685.57775
657.141	34765.4307
657.34	34499.2791
657.538	34529.98532
657.737	34867.81593
657.936	35424.9935
658.135	35023.46285
658.333	35541.80093
658.532	35392.20842
658.731	35420.89529
658.929	35590.98804
659.128	34740.85987
659.326	34824.8128
659.525	35406.55173
659.724	34665.10368
659.922	34886.24644
660.121	34910.82102
660.319	34693.7675
660.518	34470.62079
660.716	35261.08092
660.915	35291.81211
661.113	35486.46901
661.312	35037.80007
661.51	35170.94239
661.709	34988.64481
661.907	34970.21227
662.105	35201.67038
662.304	35328.691
662.502	34767.4783
662.701	34869.86375
662.899	34822.76508
663.097	35183.23346
663.296	35269.27579
663.494	35730.36808
663.692	35441.38652
663.891	35459.82906
664.089	34964.06817
664.287	35228.30219
664.485	34818.66965
664.684	35132.0218
664.882	35056.23398
665.08	35179.13641
665.278	35314.34902
665.476	35400.40457
665.675	35295.90968
665.873	35197.57325
666.071	35302.05609
666.269	35132.0218
666.467	35105.39292
666.665	34914.91685
666.863	34876.00722
667.061	34988.64481
667.259	35226.25356
667.457	35392.20842
667.655	34458.33889
667.853	35259.03221
668.051	34349.85505
668.249	35205.76753
668.447	34939.49218
668.645	34949.7321
668.843	34630.29873
669.041	34753.14521
669.239	33944.67011
669.437	34431.72862
669.635	34126.78082
669.833	34378.51008
670.031	34358.04213
670.229	34370.32285
670.426	34382.60372
670.624	34446.05714
670.822	34572.97557
671.02	34824.8128
671.218	34962.02015
671.415	34468.57379
671.613	34579.11718
671.811	34394.88473
672.009	34527.93821
672.206	34456.29193
672.404	34006.05258
672.602	34517.70272
672.799	35054.18575
672.997	34900.58154
673.195	34315.06068
673.392	35103.34457
673.59	34591.40052
673.788	34200.45176
673.985	34233.19595
674.183	34456.29193
674.38	34712.19468
674.578	34394.88473
674.775	34644.63004
674.973	34525.8911
675.17	34802.28812
675.368	34106.31752
675.565	34423.54098
675.763	34661.00892
675.96	33975.36095
676.158	34220.91677
676.355	33840.32709
676.553	34661.00892
676.75	34208.63772
676.947	34390.79105
677.145	34012.191
677.342	34349.85505
677.539	33656.21374
677.737	34376.46327
677.934	33764.6328
678.131	34407.16589
678.329	34970.21227
678.526	34509.5144
678.723	34714.24216
678.92	34837.09921
679.118	34550.45664
679.315	34225.00981
679.512	34237.28904
679.709	34525.8911
679.906	34044.9298
680.104	34059.25331
680.301	33948.76218
680.498	33789.1818
680.695	33652.12263
680.892	33852.60228
681.089	33999.91419
681.286	33963.08452
681.483	33281.92898
681.68	33539.6222
681.877	33758.49562
682.075	33836.23539
682.272	33688.94305
682.469	34055.16086
682.665	33680.76065
682.862	33746.22136
683.059	33830.09787
683.256	33871.01529
683.453	33821.91454
683.65	33856.69404
683.847	33901.70425
684.044	32997.70149
684.241	32889.34073
684.438	33605.07583
684.635	33371.91169
684.831	33754.40419
685.028	33932.39399
685.225	33717.58189
685.422	33600.98488
685.619	33627.57626
685.815	33515.07791
686.012	33502.80593
686.209	33130.60696
686.405	33318.7394
686.602	33283.97398
686.799	32815.74133
686.996	33828.05203
687.192	34083.80831
687.389	33944.67011
687.586	33566.21234
687.782	33253.2993
687.979	33183.7724
688.175	33322.82951
688.372	33373.95682
688.568	33134.69655
688.765	32842.31852
688.962	32881.16286
689.158	33187.86212
689.355	33044.72827
689.551	32721.70239
689.748	32697.17134
689.944	32464.14346
690.14	32611.31542
690.337	32507.06738
690.533	33153.0998
690.73	32780.9872
690.926	33318.7394
691.123	32899.56313
691.319	32351.72833
691.515	32629.71276
691.712	32335.37759
691.908	32433.48412
692.104	32488.67129
692.301	32496.84731
692.497	31938.913
692.693	32378.29858
692.889	32729.87948
693.086	32875.02948
693.282	32347.64063
693.478	32613.35956
693.674	32415.08876
693.87	32243.40726
694.067	32549.99231
694.263	32376.2547
694.459	32200.48923
694.655	32247.49474
694.851	31996.13004
695.047	32088.08919
695.243	32198.44554
695.439	31928.69583
695.635	32541.81606
695.831	31867.39381
696.027	31889.87102
696.224	31828.57008
696.42	31834.70009
696.615	32155.52848
696.811	31771.35736
697.007	32037.00028
697.203	31744.79479
697.399	32106.4815
697.595	31826.52674
697.791	32284.28243
697.987	31908.26164
698.183	32304.72033
698.379	31479.18548
698.575	31522.08964
698.77	31428.11005
698.966	32171.87773
699.162	31891.91442
699.358	32090.13277
699.554	32153.48483
699.749	31736.62176
699.945	31518.0035
700.141	32198.44554
700.337	31949.13022
700.532	32084.00203
700.728	32267.93226
700.924	32165.74674
701.119	32008.39103
701.315	31276.93269
701.511	31509.83123
701.706	31750.92459
701.902	31360.69203
702.097	31342.30561
702.293	31499.61594
702.489	31248.33254
702.684	31761.14095
702.88	31573.16699
703.075	31015.45666
703.271	31231.98973
703.466	31526.17579
703.662	31421.98106
703.857	31274.88981
704.053	31454.66914
704.248	31328.00514
704.443	31636.50439
704.639	31934.82613
704.834	31875.56732
705.03	31440.36806
705.225	31180.91909
705.42	31360.69203
705.616	31264.67544
705.811	30866.34433
706.006	31170.70508
706.202	31254.46111
706.397	31160.4911
706.592	31683.49773
706.787	31330.04806
706.983	31252.41825
707.178	31906.21823
707.373	31342.30561
707.568	30512.99751
707.763	30596.73511
707.959	31374.99268
708.154	30946.00614
708.349	30702.94203
708.544	31125.76386
708.739	30631.45621
708.934	30921.49459
709.129	30819.36527
709.324	30766.25939
709.519	30470.10834
709.714	30090.25637
709.909	30512.99751
710.104	29930.97567
710.299	30327.14841
710.494	30943.9635
710.689	31150.27716
710.884	31178.87628
711.079	30995.02986
711.274	30839.79086
711.469	31397.46528
711.664	30798.93983
711.859	30578.3535
712.054	30245.4597
712.249	30239.33312
712.443	30519.12457
712.638	30445.60049
712.833	29896.26156
713.028	29920.76561
713.223	29700.23494
713.417	30682.51734
713.612	30453.76976
713.807	30803.02491
714.002	30754.00432
714.196	30941.92087
714.391	30704.9845
714.586	31005.24324
714.78	31168.66228
714.975	30521.16693
715.17	30120.88807
715.364	30625.32893
715.559	31082.86611
715.754	30858.17401
715.948	30596.73511
716.143	29826.83431
716.337	29636.93682
716.532	30157.64646
716.726	30474.193
716.921	31095.12254
717.115	30459.89671
717.31	30813.23763
717.504	30306.72605
717.699	30310.81051
717.893	30002.44692
718.088	30286.30381
718.282	29975.9003
718.476	30026.95167
718.671	29790.07922
718.865	29571.59792
719.059	29130.58863
719.254	29044.84248
719.448	29224.50318
719.642	29099.96479
719.837	29210.21169
720.031	29336.79521
720.225	28932.55862
720.419	29336.79521
720.614	29204.08678
720.808	29108.13112
721.002	28463.04211
721.196	28928.47563
721.39	29232.66976
721.585	29551.17973
721.779	29557.30518
721.973	29410.29716
722.167	28891.72891
722.361	29347.00373
722.555	29104.04796
722.749	28703.91757
722.943	28914.1852
723.137	28250.75738
723.331	28501.82615
723.525	29006.05315
723.719	29206.12842
723.913	28865.18981
724.107	28507.94998
724.301	28908.06074
724.495	29312.29486
724.689	28916.22669
724.883	28258.92196
725.077	28605.93256
725.271	28763.11802
725.465	28659.00748
725.659	29001.97009
725.853	28883.56301
726.046	28716.16587
726.24	28277.29233
726.434	28285.45697
726.628	28712.0831
726.822	28407.92861
727.015	28385.47518
727.209	28538.56927
727.403	28832.52656
727.596	28930.51713
727.79	29048.92559
727.984	29148.96304
728.177	29265.33628
728.371	28681.46246
728.565	28318.11569
728.758	28375.26913
728.952	28281.37465
729.146	28371.18671
729.339	29055.05026
729.533	28836.60945
729.726	28881.52154
729.92	28781.49075
730.113	28656.96612
730.307	28910.10223
730.5	28550.81706
730.694	28789.65644
730.887	28985.63787
731.081	29134.67182
731.274	28454.8771
731.468	27989.50011
731.661	27981.33611
731.854	27885.41055
732.048	27909.90194
732.241	27924.18866
732.435	27952.76228
732.628	28185.44136
732.821	28303.82747
733.014	28475.28966
733.208	28230.346
733.401	28618.18056
733.594	28589.60196
733.788	28287.49813
733.981	28612.05656
734.174	28193.6058
734.367	28605.93256
734.56	28791.69786
734.754	28648.80071
734.947	28673.297
735.14	28338.52754
735.333	28222.18148
735.526	28573.27143
735.719	27848.67377
735.912	27503.77494
736.105	27132.38525
736.298	27716.01633
736.491	27560.91555
736.684	28279.33349
736.877	27685.40378
737.07	27850.71469
737.263	27934.3935
737.456	27887.45149
737.649	27818.06007
737.842	27524.18219
738.035	27679.28131
738.228	27391.5373
738.421	27752.75174
738.614	27722.13887
738.807	27387.456
739	26928.3438
739.192	27477.2457
739.385	27971.13115
739.578	27583.36392
739.771	28087.46945
739.964	27487.44923
740.156	27820.10098
740.349	27258.89778
740.542	27740.50656
740.735	27479.2864
740.927	27869.08304
741.12	27783.36487
741.313	27785.40575
741.505	27413.98452
741.698	27050.76701
741.891	26987.51439
742.083	27695.60793
742.276	27489.48994
742.468	27109.94002
742.661	27018.12033
742.854	26854.89232
743.046	26785.52319
743.239	26820.20754
743.431	27764.99696
743.624	27011.99912
743.816	27042.60531
744.009	27450.71667
744.201	27354.80581
744.393	27011.99912
744.586	27240.53274
744.778	27063.00961
744.971	26846.73116
745.163	27122.18285
745.355	26614.14799
745.548	26726.35675
745.74	27156.87115
745.932	27326.23716
746.125	26928.3438
746.317	26883.45656
746.509	26926.30346
746.702	27189.51931
746.894	26789.60368
747.086	26610.06776
747.278	26828.36863
747.471	26750.83926
747.663	27091.57586
747.855	27195.64088
748.047	26985.47401
748.239	26767.16106
748.431	26665.1514
748.623	26624.34859
748.815	26689.63338
749.008	26944.66661
749.2	26889.57751
749.392	26838.57002
749.584	26591.70679
749.776	26701.87445
749.968	26783.48295
750.16	27207.88405
750.352	26834.48946
750.544	26605.98753
750.736	26618.22823
750.928	26585.58649
751.12	26102.12901
751.311	26179.63909
751.503	26124.56588
751.695	26561.10545
751.887	26585.58649
752.079	27242.5733
752.271	26506.02394
752.463	26512.14405
752.654	26365.26532
752.846	26320.38739
753.038	26059.29557
753.23	26114.36728
753.421	26122.52616
753.613	25792.1144
753.805	26434.62368
753.997	26291.82912
754.188	26049.09724
754.38	25663.63412
754.572	25871.65359
754.763	25739.08987
754.955	25488.26088
755.146	25975.67062
755.338	25710.53873
755.53	25959.35391
755.721	26004.22514
755.913	26004.22514
756.104	25969.55184
756.296	25794.15383
756.487	25773.75961
756.679	25626.92688
756.87	25559.63193
757.062	25531.08321
757.253	25319.0196
757.445	25388.34562
757.636	25345.52632
757.827	25170.18089
758.019	25355.72131
758.21	25321.05856
758.401	25590.22027
758.593	24980.58148
758.784	25471.94785
758.975	24801.19386
759.167	24876.61599
759.358	24705.3921
759.549	24462.85459
759.74	24387.4511
759.932	24250.91879
760.123	24660.55057
760.314	24587.17611
760.505	24526.03319
760.696	24652.3977
760.888	24990.7745
761.079	24605.51942
761.27	24788.96355
761.461	24627.9393
761.652	25043.77912
761.843	24497.50062
762.034	24715.58352
762.225	24067.53623
762.416	24866.42362
762.607	24471.00653
762.798	24744.11983
762.989	24668.70349
763.18	24495.46259
763.371	24556.60437
763.562	24434.32312
763.753	24087.91097
763.944	24067.53623
764.135	23886.21343
764.326	24161.26232
764.517	24193.86407
764.708	24136.81147
764.899	23682.50725
765.089	23423.84367
765.28	23289.43987
765.471	23584.73884
765.662	23505.30717
765.853	23544.00407
766.043	23322.02134
766.234	23586.77561
766.425	23319.98497
766.615	23503.27052
766.806	23684.54416
766.997	23256.85921
767.187	23529.74719
767.378	23745.65301
767.569	23733.43103
767.759	23792.50494
767.95	23484.94083
768.141	23521.60047
768.331	23415.69759
768.522	23827.13562
768.712	23717.13522
768.903	23831.20988
769.093	22855.7787
769.284	23146.90561
769.474	22717.36505
769.665	22772.3215
769.855	23059.35678
770.046	22654.27004
770.236	22701.08215
770.426	22721.43582
770.617	22487.3899
770.807	22754.00241
770.998	22595.24873
771.188	22519.95
771.378	22631.8823
771.569	22967.74248
771.759	22910.74146
771.949	22442.62126
772.139	22770.28603
772.33	22176.08086
772.52	22975.8857
772.71	22829.31604
772.9	22424.30732
773.09	22707.18821
773.281	22499.59983
773.471	22798.78292
773.661	22267.63344
773.851	22119.11862
774.041	22062.15931
774.231	21942.1476
774.421	22060.1251
774.611	21698.09714
774.802	21795.71065
774.992	21868.92663
775.182	21976.72589
775.372	21793.67694
775.562	22125.22157
775.752	22066.22773
775.942	21584.22609
776.131	21822.14918
776.321	21555.76025
776.511	21940.11362
776.701	21746.90277
776.891	21946.21558
777.081	21486.63216
777.271	21781.47479
777.461	21649.29375
777.651	21563.89327
777.84	21141.06109
778.03	21226.42664
778.22	20972.38366
778.41	20864.68876
778.599	21106.51041
778.789	21364.65264
778.979	21531.36158
779.169	21299.60279
779.358	21309.76656
779.548	21673.69516
779.738	21112.60751
779.927	21283.34097
780.117	21332.1272
780.307	21094.31633
780.496	20988.6405
780.686	21033.34815
780.875	21157.32064
781.065	21094.31633
781.254	20655.42813
781.444	20641.20813
781.633	20541.67387
781.823	20860.62503
782.012	20555.89244
782.202	20801.70278
782.391	20923.61473
782.581	20622.92558
782.77	20545.7363
782.96	20375.1288
783.149	20358.882
783.338	20789.5124
783.528	20267.49881
783.717	20176.12412
783.906	19891.90178
784.096	20048.21387
784.285	20535.58026
784.474	20409.65412
784.663	20334.51232
784.853	20283.74409
785.042	20354.82035
785.231	20318.2662
785.42	20088.81849
785.61	20015.73138
785.799	20306.08179
785.988	20379.19054
786.177	19869.57352
786.366	20180.18504
786.555	19916.26047
786.744	19695.02461
786.933	19658.49504
787.122	20153.78938
787.312	19845.216
787.501	19924.38017
787.69	19581.38151
787.879	19388.62402
788.068	19506.30308
788.257	19339.93332
788.445	19457.6066
788.634	19607.76178
788.823	19291.24499
789.012	19128.96769
789.201	19047.83885
789.39	19266.90172
789.579	19301.3882
789.768	19494.12874
789.957	19287.18774
790.145	19536.7396
790.334	19299.35955
790.523	19331.81843
790.712	19364.27837
790.9	19222.27393
791.089	18946.43692
791.278	18993.08055
791.467	19003.22076
791.655	19047.83885
791.844	18836.93414
792.033	18729.47049
792.221	18703.11318
792.41	18557.1462
792.599	18384.84987
792.787	18532.82033
792.976	18540.9289
793.164	18638.23647
793.353	18682.83877
793.541	18615.93603
793.73	18476.06213
793.918	18536.87461
794.107	18117.33771
794.295	18544.9832
794.484	18374.71564
794.672	18273.3786
794.861	18074.78486
795.049	18336.20646
795.238	18020.07638
795.426	18285.53855
795.614	18174.07733
795.803	18054.52215
795.991	18090.99528
796.179	18247.0325
796.368	17949.16185
796.556	18340.26
796.744	18097.07425
796.932	18066.67973
797.121	17955.24007
797.309	17934.97946
797.497	17928.90135
797.685	18247.0325
797.874	17793.16497
798.062	17849.88873
798.25	17837.73342
798.438	18184.20971
798.626	17908.6412
798.814	18279.45856
799.002	18125.44319
799.19	18086.94265
799.378	17985.63164
799.566	18001.8408
799.755	17787.08758
799.943	17730.36677
800.131	18127.46957
800.318	17625.03507
800.506	17783.03601
800.694	17722.26401
800.882	17730.36677
801.07	18324.04595
801.258	18022.10257
801.446	18097.07425
801.634	17641.23937
801.822	17604.78
802.01	17815.44898
802.197	17967.3966
802.385	17823.55237
802.573	17627.0606
802.761	17841.78517
802.949	18048.44341
803.136	17655.4183
803.324	17888.3814
803.512	18066.67973
803.699	17904.58921
803.887	17872.17381
804.075	17712.13564
804.262	17661.49503
804.45	17939.03156
804.638	17586.55071
804.825	18111.25863
805.013	17819.50067
805.201	17937.00551
805.388	17758.72684
805.576	17752.64963
805.763	17592.62711
805.951	17503.50949
806.138	17373.89477
806.326	17497.43351
806.513	17207.84414
806.701	17242.26764
806.888	17080.28196
807.075	17296.94199
807.263	17333.39276
807.45	17602.75451
807.638	17303.01705
807.825	17525.78831
808.012	17402.2469
808.2	17489.33225
808.387	17734.41817
808.574	17760.75259
808.761	17371.86964
808.949	17339.46799
809.136	17009.41886
809.323	17171.39665
809.51	17343.51815
809.698	17398.19656
809.885	17274.66699
810.072	17687.82789
810.259	17616.933
810.446	17908.6412
810.633	17596.67806
810.82	17835.70754
811.008	17454.90247
811.195	17677.6998
811.382	17343.51815
811.569	17625.03507
811.756	17495.40819
811.943	17955.24007
812.13	17783.03601
812.317	17511.61083
812.504	17772.90713
812.691	17691.87915
812.878	17386.04561
813.064	17829.62994
813.251	17631.11166
813.438	17807.34566
813.625	17337.44291
813.812	17418.44839
813.999	17270.61703
814.186	17855.96644
814.372	17333.39276
814.559	17616.933
814.746	17141.02445
814.933	17183.54571
815.12	17217.96861
815.306	16772.55709
815.493	16798.87336
815.68	17420.47359
815.866	17377.94504
816.053	17720.23833
816.24	17199.74462
816.426	17284.79194
816.613	17710.10997
816.799	17313.14221
816.986	16928.43651
817.173	17292.89196
817.359	17268.59205
817.546	17408.32244
817.732	17252.39235
817.919	17552.11833
818.105	16938.55907
818.292	17201.7695
818.478	17450.85197
818.665	17246.31751
818.851	17341.49307
819.037	17262.51714
819.224	17035.73905
819.41	17100.52918
819.597	16948.6817
819.783	17321.2424
819.969	16926.412
820.156	16922.363
820.342	16900.09367
820.528	17195.69488
820.714	17045.86232
820.901	17213.91882
821.087	16918.31401
821.273	17278.71696
821.459	17159.2477
821.646	17207.84414
821.832	17276.69198
822.018	16958.80439
822.204	16636.93353
822.39	16790.776
822.576	16137.03017
822.762	16564.06542
822.948	16560.01728
823.134	16448.69665
823.32	16464.88835
823.507	16758.38697
823.693	16906.1671
823.879	16942.60811
824.065	16784.70301
824.25	16539.77669
824.436	16323.21529
824.622	16290.8342
824.808	16448.69665
824.994	16792.80034
825.18	16732.07134
825.366	16632.88522
825.552	16373.81172
825.738	16541.80074
825.923	16667.2961
826.109	17011.44348
826.295	16323.21529
826.481	16687.53811
826.667	16309.04851
826.852	16628.83693
827.038	16339.40602
827.224	16430.48115
827.409	16256.4298
827.595	16155.2433
827.781	15898.24708
827.966	16262.50112
828.152	15853.73028
828.338	15956.92926
828.523	15675.66844
828.709	15849.68333
828.894	15390.37831
829.08	15752.5578
829.266	15663.52814
829.451	15501.66018
829.637	15572.47683
829.822	15287.19079
830.008	15598.78038
830.193	15977.16474
830.378	15772.79208
830.564	15855.75376
830.749	15614.96724
830.935	15598.78038
831.12	15301.35373
831.305	15843.61291
831.491	15402.51808
831.676	15505.70683
831.861	15532.01008
832.047	15621.03733
832.232	15345.86594
832.417	15511.7768
832.602	15317.53997
832.788	15451.07732
832.973	15819.33132
833.158	15673.64506
833.343	15608.89716
833.528	15325.6331
833.714	15266.95802
833.899	15353.95909
834.084	15010.00231
834.269	15135.44536
834.454	14860.2784
834.639	14989.76948
834.824	15111.1661
835.009	15161.74787
835.194	15186.02712
835.379	15196.14348
835.564	14894.67466
835.749	15082.84028
835.934	14641.75621
836.119	14742.92507
836.304	14516.30316
836.489	14354.42073
836.674	14619.49873
836.859	14510.23274
837.044	14726.7382
837.228	14825.88198
837.413	14708.52791
837.598	14979.65305
837.783	14702.4578
837.968	14726.7382
838.152	14328.1139
838.337	14556.77238
838.522	14247.16793
838.707	14439.41018
838.891	14044.78912
839.076	14360.4915
839.261	14150.02875
839.445	14783.39201
839.63	14465.7159
839.815	14516.30316
839.999	14581.05368
840.184	14884.55813
840.368	14463.69239
840.553	14698.41106
840.737	14174.31398
840.922	14429.29253
841.106	13937.51908
841.291	14182.409
841.475	13929.42294
841.66	14194.55145
841.844	13824.16915
842.029	14093.36201
842.213	13864.65226
842.397	13678.4201
842.582	13648.05366
842.766	13826.19333
842.951	13577.19569
843.135	13453.68998
843.319	13686.51769
843.504	13271.44215
843.688	13783.68488
843.872	13777.61214
844.056	13678.4201
844.241	13818.09658
844.425	13453.68998
844.609	13684.4933
844.793	13455.71477
844.977	13595.41671
845.161	13380.79478
845.346	13607.5639
845.53	13271.44215
845.714	13552.90055
845.898	13421.29274
846.082	13320.04481
846.266	13291.69356
846.45	13415.21814
846.634	13372.69499
846.818	13287.64331
847.002	13087.13395
847.186	13374.71994
847.37	13261.31629
847.554	13573.14653
847.738	13228.9128
847.922	13540.75279
848.106	13358.52022
848.29	13455.71477
848.473	13018.26158
848.657	13000.02971
848.841	12596.79122
849.025	12669.75565
849.209	12400.15206
849.392	12483.275
849.576	12600.845
849.76	12477.19321
849.944	12673.809
850.127	12979.77159
850.311	12789.31967
850.495	12925.07212
850.678	13010.15858
850.862	13273.46731
851.046	12511.65593
851.229	12807.5565
851.413	12463.00214
851.596	12653.542
851.78	12671.78232
851.964	12878.47327
852.147	12493.41119
852.331	12600.845
852.514	12365.68315
852.698	12114.20117
852.881	12012.76476
853.065	11927.54293
853.248	11750.96567
853.431	11791.56383
853.615	11805.77237
853.798	11882.89721
853.982	11773.29508
854.165	11720.51476
854.348	11765.17542
854.532	12164.9122
854.715	11868.69092
854.898	11998.5621
855.081	11718.48463
855.265	11789.534
855.448	11588.53766
855.631	11681.94077
855.814	11704.27347
855.997	11781.41461
856.181	11537.76696
856.364	11623.05844
856.547	11787.50417
856.73	11848.3955
856.913	11537.76696
857.096	11809.83188
857.279	11728.6352
857.462	11856.51377
857.645	11813.89135
857.828	11653.51576
858.011	11572.29167
858.194	11610.87494
858.377	10995.14977
858.56	11267.56581
858.743	11078.52142
858.926	11182.20221
859.109	11237.08091
859.292	11188.30022
859.475	11131.38177
859.658	11159.84203
859.841	11139.51349
860.023	11237.08091
860.206	10944.30426
860.389	10976.84619
860.572	10789.69012
860.755	10775.44596
860.937	10751.02606
861.12	10822.24603
861.303	10789.69012
861.486	11015.48603
861.668	10710.3224
861.851	10588.18228
862.034	10441.55484
862.216	10708.28709
862.399	10264.29035
862.581	10406.92478
862.764	10217.41041
862.947	10787.65528
863.129	10476.18116
863.312	10696.07498
863.494	10461.92371
863.677	10610.57794
863.859	10828.34993
864.042	10468.03412
864.224	10162.36821
864.406	10300.97401
864.589	10317.27646
864.771	10388.5897
864.954	9950.25831
865.136	10068.56928
865.318	9721.65621
865.501	10309.12534
865.683	10009.41983
865.865	10082.84495
866.048	9874.75861
866.23	9942.09715
866.412	9764.53343
866.594	10040.01587
866.777	9933.93575
866.959	9874.75861
867.141	9660.39135
867.323	9856.39076
867.505	9503.08069
867.687	9911.4907
867.869	9729.82382
868.052	10003.30024
868.234	9872.71779
868.416	9756.36686
868.598	9721.65621
868.78	9713.48836
868.962	9927.81455
869.144	9872.71779
869.326	9570.51097
869.508	9617.49767
869.69	9321.13584
869.872	9654.2641
870.054	9807.40396
870.236	9819.65147
870.417	9574.5971
870.599	9844.14487
870.781	9404.96915
870.963	9623.62576
871.145	9560.29537
871.327	9884.96244
871.508	9521.47248
871.69	9721.65621
871.872	9177.94126
872.054	9533.73296
872.235	9304.77489
872.417	9321.13584
872.599	9202.49476
872.78	9306.82007
872.962	9214.77059
873.144	9190.21831
873.325	9163.61725
873.507	9312.9555
873.689	9124.73359
873.87	9274.09525
874.052	8872.86125
874.233	9190.21831
874.415	9141.10641
874.596	9272.04981
874.778	8936.36639
874.959	9030.56846
875.141	9053.08955
875.322	9421.32366
875.503	9362.03359
875.685	9325.22591
875.866	9218.8624
876.048	9251.59446
876.229	9112.45326
876.41	9231.13743
876.592	9323.18089
876.773	9617.49767
876.954	8993.71121
877.136	9337.49573
877.317	8915.88273
877.498	9063.32571
877.679	8977.32839
877.86	9042.85295
878.042	9087.89073
878.223	9177.94126
878.404	9018.28334
878.585	9206.58677
878.766	8772.44693
878.947	9132.92014
879.128	9096.07851
879.309	9073.56144
879.49	9053.08955
879.672	9349.76496
879.853	8960.94444
880.034	9147.24594
880.215	8997.80674
880.396	8979.37631
880.576	9022.37845
880.757	9216.81651
880.938	8698.64529
881.119	9280.23148
881.3	9026.47349
881.481	9415.19084
881.662	9421.32366
881.843	9574.5971
882.023	9478.55628
882.204	9325.22591
882.385	9057.18406
882.566	8938.41466
882.747	9018.28334
882.927	9038.75819
883.108	9075.60853
883.289	9003.94991
883.469	9112.45326
883.65	9308.86523
883.831	9290.45819
884.011	9345.67528
884.192	9235.22897
884.373	9404.96915
884.553	9055.13682
884.734	9552.1226
884.914	9290.45819
885.095	9362.03359
885.275	9451.98556
885.456	9599.11256
885.636	9044.90031
885.817	9513.29851
885.997	9312.9555
886.178	9451.98556
886.358	9192.26443
886.538	9695.1098
886.719	9460.16146
886.899	9435.633
887.08	9276.14068
887.26	9541.90629
887.44	9194.31053
887.621	9282.27685
887.801	8991.66342
887.981	9231.13743
888.161	9073.56144
888.342	9437.67713
888.522	9096.07851
888.702	9143.15294
888.882	9200.44873
889.062	9263.86787
889.242	9051.04226
889.423	9243.41185
889.603	9145.19945
889.783	9202.49476
889.963	8715.04771
890.143	9261.82234
890.323	8891.29999
890.503	9484.6876
890.683	8991.66342
890.863	9325.22591
891.043	9190.21831
891.223	9345.67528
891.403	9255.68566
891.583	9345.67528
891.763	8919.97961
891.943	9120.64022
892.122	8827.78264
892.302	9048.99496
892.482	8817.53628
892.662	8889.25132
892.842	8534.55563
893.022	8932.2698
893.201	8555.0734
893.381	8901.54311
893.561	8889.25132
893.741	9108.35968
893.92	8848.274
894.1	8979.37631
894.28	8633.02377
894.459	8913.83427
894.639	8756.04862
894.819	8833.93024
894.998	8279.97626
895.178	8731.44896
895.357	8829.83186
895.537	8794.99271
895.716	8794.99271
895.896	9100.1723
896.075	8626.87078
896.255	8776.54633
896.434	8809.33887
896.614	9094.03159
896.793	8436.0439
896.973	8649.43093
897.152	8312.84195
897.331	8741.69914
897.511	8306.68001
897.69	8542.76297
897.87	8335.4342
898.049	8394.98432
898.228	8296.40973
898.407	8296.40973
898.587	8286.13896
898.766	8390.87794
898.945	8169.01733
899.124	8169.01733
899.304	8004.52667
899.483	8058.00029
899.662	7687.51311
899.841	8090.90034
900.02	7804.90675
900.199	7885.18963
900.378	7714.29311
900.557	7852.25688
900.737	7802.8478
900.916	7905.76991
901.095	7475.20609
901.274	7778.13876
901.453	7386.50556
901.632	7483.45527
901.811	7419.5151
901.989	7784.3163
902.168	7466.95657
902.347	7535.00482
902.526	7097.43238
902.705	7217.24378
902.884	7270.92815
903.063	7388.56882
903.242	7351.42681
903.42	7543.2515
903.599	7345.23579
903.778	7353.49044
903.957	7093.29962
904.135	7361.74474
904.314	7087.1003
904.493	6973.41047
904.672	6613.28548
904.85	6793.43435
905.029	6716.84054
905.207	6625.71513
905.386	6563.5586
905.565	6588.4237
905.743	6443.33023
905.922	6368.66642
906.1	6100.87229
906.279	6530.39994
906.457	6161.10807
906.636	6497.23535
906.814	6042.69483
906.993	6107.10449
907.171	6038.5386
907.35	6219.24801
907.528	5917.96669
907.707	6113.33648
907.885	5793.15365
908.063	5893.01088
908.242	5926.28454
908.42	5932.52268
908.598	5693.24204
908.777	5861.81133
908.955	5961.63119
909.133	6121.64548
909.311	5551.60754
909.49	5682.83146
909.668	5587.02639
909.846	5824.36487
910.024	5707.81587
910.202	5841.00869
910.38	5893.01088
910.559	5886.77139
910.737	5776.50549
910.915	6125.79983
911.093	6057.24093
911.271	5976.18372
911.449	5643.26585
911.627	5780.66767
911.805	5580.7765
911.983	5643.26585
912.161	5682.83146
912.339	6034.38226
912.517	5909.64847
912.695	6142.41632
912.872	5957.47312
913.05	6227.55222
913.228	5930.44333
913.406	6217.1719
913.584	5947.07752
913.762	5899.25015
913.939	5649.51362
914.117	5882.61162
914.295	5728.63362
914.473	6163.18481
914.65	5907.56885
914.828	6026.06932
915.006	5888.85125
915.184	5974.10486
915.361	5616.18974
915.539	5965.78918
915.716	5432.80057
915.894	5778.58659
916.072	5507.84545
916.249	5407.77883
916.427	5507.84545
916.604	5711.97961
916.782	5420.29012
916.959	5691.15997
917.137	5566.1926
917.314	5524.51795
917.492	5359.81106
917.669	5589.10964
917.847	5094.7227
918.024	5468.24223
918.201	5217.9208
918.379	5428.63051
918.556	5067.56649
918.733	5184.51915
918.911	4839.71871
919.088	5178.25568
919.265	5126.05193
919.442	5257.5775
919.62	5178.25568
919.797	5499.50863
919.974	5092.6339
920.151	5428.63051
920.328	4931.72682
920.506	5103.07767
920.683	5220.00821
920.86	5067.56649
921.037	4747.66643
921.214	4856.45075
921.391	4628.3518
921.568	4940.089
921.745	4799.97426
921.922	5207.48343
922.099	4793.69807
922.276	4992.34425
922.453	4841.81029
922.63	4965.17331
922.807	4538.29436
922.984	4799.97426
923.161	4557.147
923.338	4776.96056
923.514	4475.43929
923.691	4781.14507
923.868	4496.39319
924.045	4831.35214
924.222	4701.62384
924.399	4630.44567
924.575	4498.48846
924.752	4714.182
924.929	4339.18557
925.105	4647.19581
925.282	4070.60516
925.459	4412.56442
925.635	4072.70478
925.812	4460.77026
925.989	4135.68374
926.165	4269.97553
926.342	3850.03103
926.518	4211.23356
926.695	3917.27729
926.871	3969.79909
927.048	3988.70383
927.224	3995.00504
927.401	3568.21989
927.577	3782.76443
927.754	3542.96645
927.93	3934.08564
928.107	3725.99263
928.283	3934.08564
928.459	3713.37475
928.636	4043.3082
928.812	3725.99263
928.988	3841.62382
929.165	3564.01117
929.341	3892.06235
929.517	3608.19903
929.693	3658.68931
929.87	3307.14232
930.046	3591.36653
930.222	3302.92917
930.398	3641.86043
930.574	3288.18261
930.751	3725.99263
930.927	3258.687
931.103	3761.73949
931.279	3106.94393
931.455	3416.65983
931.631	3043.69305
931.807	3416.65983
931.983	2980.42826
932.159	3058.45285
932.335	2887.61552
932.511	3066.88668
932.687	2794.77496
932.863	3189.14864
933.039	2792.66463
933.215	3235.50956
933.391	2820.0978
933.566	3079.53695
933.742	2826.4282
933.918	2790.55429
934.094	2630.12974
934.27	2670.24288
934.445	2484.419
934.621	2678.68717
934.797	2319.63893
934.973	2473.85812
935.148	2019.51068
935.324	2298.50883
935.5	2078.70351
935.675	2328.0907
935.851	1998.36909
936.027	1951.85535
936.202	1719.24844
936.378	1852.47575
936.553	1888.42293
936.729	1731.93742
936.904	1427.38022
937.08	1683.29571
937.255	1423.15012
937.431	1452.76085
937.606	1372.38911
937.782	1361.81396
937.957	1237.03044
938.133	1452.76085
938.308	1021.33052
938.483	1186.2736
938.659	976.92843
938.834	1021.33052
939.009	924.07269
939.185	979.04275
939.36	862.76597
939.535	924.07269
939.71	721.15502
939.886	932.52931
940.061	822.60332
940.236	826.83082
940.411	754.96854
940.586	803.58005
940.761	750.74171
940.937	905.04575
941.112	744.40153
941.287	759.19542
941.462	636.6336
941.637	600.71778
941.812	558.46863
941.987	594.38007
942.162	552.13172
942.337	514.11286
942.512	473.9869
942.687	497.21707
942.862	446.5354
943.037	516.2249
943.212	429.64347
943.386	564.80566
943.561	526.78531
943.736	564.80566
943.911	440.20081
944.086	545.79493
944.26	391.64037
944.435	446.5354
944.61	372.64081
944.785	497.21707
944.959	406.41873
945.134	423.30926
945.309	482.43403
945.483	412.75256
945.658	355.75346
945.833	543.68269
946.007	476.09866
946.182	397.97385
946.357	383.19595
946.531	412.75256
946.706	461.31665
946.88	471.87515
947.055	357.86432
947.229	539.45826
947.404	393.75151
947.578	429.64347
947.752	463.42832
947.927	531.00957
948.101	450.75854
948.276	528.89743
948.45	412.75256
948.624	492.99327
948.799	492.99327
948.973	514.11286
949.147	564.80566
949.321	505.66485
949.496	429.64347
949.67	611.28088
949.844	450.75854
950.018	539.45826
950.193	480.32222
950.367	539.45826
950.541	421.19789
950.715	408.52999
950.889	482.43403
951.063	541.57047
951.237	569.03042
951.411	469.76342
951.585	505.66485
951.759	630.29525
951.933	554.24401
952.107	558.46863
952.281	541.57047
952.455	588.04248
952.629	531.00957
952.803	564.80566
952.977	488.76953
953.151	550.01944
953.325	632.40802
953.499	598.60519
953.672	531.00957
953.846	581.70501
954.02	484.54585
954.194	556.35631
954.368	378.97385
954.541	575.36765
954.715	370.52983
954.889	547.90718
955.062	545.79493
955.236	617.61889
955.41	547.90718
955.583	552.13172
955.757	463.42832
955.93	600.71778
956.104	408.52999
956.278	497.21707
956.451	448.64696
956.625	427.53205
956.798	433.86636
956.972	541.57047
957.145	410.64126
957.319	454.98174
957.492	450.75854
957.665	524.6732
957.839	429.64347
958.012	488.76953
958.185	465.54001
958.359	492.99327
958.532	514.11286
958.705	531.00957
958.879	488.76953
959.052	552.13172
959.225	499.329
959.398	503.55289
959.572	484.54585
959.745	598.60519
959.918	397.97385
960.091	592.26753
960.264	461.31665
960.438	547.90718
960.611	395.86267
960.784	522.5611
960.957	387.41813
961.13	473.9869
961.303	554.24401
961.476	590.155
961.649	389.52924
961.822	583.81748
961.995	448.64696
962.168	473.9869
962.341	248.12334
962.514	471.87515
962.686	423.30926
962.859	395.86267
963.032	374.75181
963.205	429.64347
963.378	446.5354
963.551	499.329
963.723	414.86386
963.896	431.75491
964.069	438.08931
964.242	465.54001
964.414	463.42832
964.587	459.205
964.76	370.52983
964.932	416.97519
965.105	463.42832
965.278	531.00957
965.45	533.12172
965.623	383.19595
965.795	336.75651
965.968	421.19789
966.14	444.42385
966.313	406.41873
966.485	431.75491
966.658	465.54001
966.83	336.75651
967.003	446.5354
967.175	362.08609
967.348	404.30748
967.52	385.30703
967.692	467.65171
967.865	374.75181
968.037	393.75151
968.209	395.86267
968.382	404.30748
968.554	357.86432
968.726	381.08489
968.898	298.76691
969.071	372.64081
969.243	400.08505
969.415	351.5318
969.587	338.86722
969.759	370.52983
969.932	252.34322
970.104	328.31388
970.276	214.36707
970.448	336.75651
970.62	326.20327
970.792	241.79366
970.964	262.89326
971.136	279.77431
971.308	336.75651
971.48	332.53516
971.652	279.77431
971.824	374.75181
971.996	275.55393
972.168	330.42451
972.339	347.3102
972.511	286.10501
972.683	311.42946
972.855	370.52983
973.027	319.87153
973.199	317.76099
973.37	288.21528
973.542	381.08489
973.714	243.90353
973.886	302.98769
974.057	288.21528
974.229	218.58633
974.401	218.58633
974.572	176.39736
974.744	224.91537
974.915	235.46415
975.087	252.34322
975.259	315.65046
975.43	212.25747
975.602	256.56318
975.773	239.6838
975.945	241.79366
976.116	210.14789
976.288	239.6838
976.459	235.46415
976.63	256.56318
976.802	205.9288
976.973	246.01343
977.145	262.89326
977.316	256.56318
977.487	184.83451
977.659	235.46415
977.83	153.19692
978.001	227.02509
978.172	113.12946
978.344	178.50662
978.515	167.96055
978.686	189.0532
978.857	176.39736
979.028	193.27198
979.2	127.89025
979.371	201.70978
979.542	197.49084
979.713	227.02509
979.884	218.58633
980.055	159.52406
980.226	193.27198
980.397	184.83451
980.568	186.94385
980.739	201.70978
980.91	125.7815
981.081	178.50662
981.252	151.08791
981.423	205.9288
981.594	142.6521
981.765	170.06972
981.936	138.43433
982.106	155.30595
982.277	127.89025
982.448	195.3814
982.619	178.50662
982.79	146.86997
982.96	184.83451
983.131	111.02086
983.302	119.45538
983.472	138.43433
983.643	167.96055
983.814	96.26129
983.984	151.08791
984.155	125.7815
984.326	151.08791
984.496	167.96055
984.667	94.15287
984.837	159.52406
985.008	161.63315
985.178	49.88122
985.349	153.19692
985.519	176.39736
985.69	138.43433
985.86	117.34672
986.031	161.63315
986.201	70.96171
986.371	123.67278
986.542	83.6111
986.712	100.4782
986.882	121.56407
987.053	142.6521
987.223	94.15287
987.393	47.77329
987.563	85.71941
987.734	60.42118
987.904	123.67278
988.074	119.45538
988.244	138.43433
988.414	66.74543
988.585	54.09713
988.755	142.6521
988.925	127.89025
989.095	83.6111
989.265	60.42118
989.435	151.08791
989.605	138.43433
989.775	79.39455
989.945	54.09713
990.115	151.08791
990.285	235.46415
990.455	117.34672
990.625	41.44967
990.795	138.43433
990.965	7.72721
991.134	79.39455
991.304	163.74226
991.474	108.91229
991.644	60.42118
991.814	117.34672
991.984	125.7815
992.153	18.26482
992.323	100.4782
992.493	117.34672
992.662	125.7815
992.832	92.04447
993.002	62.52924
993.171	117.34672
993.341	178.50662
993.511	134.21663
993.68	60.42118
993.85	85.71941
994.019	117.34672
994.189	129.99903
994.358	54.09713
994.528	58.31314
994.697	89.9361
994.867	41.44967
995.036	60.42118
995.206	68.85356
995.375	100.4782
995.544	-25.98912
995.714	66.74543
995.883	28.80304
996.052	66.74543
996.222	85.71941
996.391	100.4782
996.56	62.52924
996.73	58.31314
996.899	134.21663
997.068	87.82774
997.237	85.71941
997.406	104.6952
997.576	66.74543
997.745	41.44967
997.914	37.23403
998.083	16.15725
998.252	81.50281
998.421	66.74543
998.59	22.48004
998.759	94.15287
998.928	66.74543
999.097	35.12624
999.266	92.04447
999.435	83.6111
999.604	96.26129
999.773	113.12946
999.942	92.04447
1000.111	58.31314
1000.28	115.23808
1000.448	41.44967
1000.617	75.17808
1000.786	121.56407
1000.955	125.7815
1001.124	100.4782
1001.292	75.17808
1001.461	81.50281
1001.63	24.58768
1001.798	75.17808
1001.967	28.80304
1002.136	35.12624
1002.304	79.39455
1002.473	68.85356
1002.642	35.12624
1002.81	41.44967
1002.979	58.31314
1003.147	68.85356
1003.316	49.88122
1003.484	11.94218
1003.653	-17.56062
1003.821	45.6654
1003.99	-2.80981
1004.158	35.12624
1004.327	33.01848
1004.495	68.85356
1004.663	100.4782
1004.832	24.58768
1005	41.44967
1005.168	60.42118
1005.337	66.74543
1005.505	33.01848
1005.673	7.72721
1005.842	62.52924
1006.01	7.72721
1006.178	47.77329
1006.346	33.01848
1006.514	51.98916
1006.683	28.80304
1006.851	83.6111
1007.019	24.58768
1007.187	-15.45344
1007.355	-0.70246
1007.523	-9.13173
1007.691	37.23403
1007.859	26.69535
1008.027	87.82774
1008.195	20.37242
1008.363	20.37242
1008.531	75.17808
1008.699	-25.98912
1008.867	83.6111
1009.035	129.99903
1009.203	5.61975
1009.37	20.37242
1009.538	9.83468
1009.706	-9.13173
1009.874	45.6654
1010.042	98.36974
1010.209	24.58768
1010.377	96.26129
1010.545	37.23403
1010.713	-28.09618
1010.88	85.71941
1011.048	87.82774
1011.216	56.20513
1011.383	66.74543
1011.551	33.01848
1011.718	77.2863
1011.886	-34.41722
1012.054	33.01848
1012.221	70.96171
1012.389	-25.98912
1012.556	20.37242
1012.724	60.42118
1012.891	35.12624
1013.058	22.48004
1013.226	102.58669
1013.393	24.58768
1013.561	104.6952
1013.728	24.58768
1013.895	-47.05863
1014.063	79.39455
1014.23	75.17808
1014.397	83.6111
1014.565	-17.56062
1014.732	-34.41722
1014.899	1.40492
1015.066	96.26129
1015.233	30.91075
1015.401	92.04447
1015.568	-17.56062
1015.735	7.72721
1015.902	22.48004
1016.069	-0.70246
1016.236	58.31314
1016.403	-32.31023
1016.57	77.2863
1016.737	-21.77492
1016.904	45.6654
1017.071	58.31314
1017.238	75.17808
1017.405	-0.70246
1017.572	47.77329
1017.739	41.44967
1017.906	49.88122
1018.073	18.26482
1018.24	24.58768
1018.407	134.21663
1018.573	20.37242
1018.74	11.94218
1018.907	51.98916
1019.074	45.6654
1019.241	39.34183
1019.407	49.88122
1019.574	45.6654
1019.741	35.12624
1019.907	-30.20322
1020.074	-17.56062
1020.241	28.80304
1020.407	33.01848
1020.574	24.58768
1020.74	100.4782
1020.907	108.91229
1021.073	-17.56062
1021.24	28.80304
1021.406	-47.05863
1021.573	30.91075
1021.739	-13.34623
1021.906	20.37242
1022.072	39.34183
1022.239	1.40492
1022.405	16.15725
1022.571	26.69535
1022.738	24.58768
1022.904	33.01848
1023.07	51.98916
1023.237	41.44967
1023.403	68.85356
1023.569	51.98916
1023.735	-15.45344
1023.902	20.37242
1024.068	51.98916
1024.234	-23.88203
1024.4	3.51233
1024.566	-13.34623
1024.732	26.69535
1024.898	138.43433
1025.065	11.94218
1025.231	111.02086
1025.397	51.98916
1025.563	-0.70246
1025.729	11.94218
1025.895	-25.98912
1026.061	-9.13173
1026.227	35.12624
1026.392	62.52924
1026.558	66.74543
1026.724	66.74543
1026.89	79.39455
1027.056	41.44967
1027.222	92.04447
1027.388	-4.91714
1027.553	18.26482
1027.719	-30.20322
1027.885	68.85356
1028.051	-23.88203
1028.216	3.51233
1028.382	3.51233
1028.548	7.72721
1028.713	33.01848
1028.879	-7.02445
1029.045	28.80304
1029.21	9.83468
1029.376	-25.98912
1029.541	20.37242
1029.707	1.40492
1029.873	79.39455
1030.038	33.01848
1030.204	83.6111
1030.369	66.74543
1030.534	24.58768
1030.7	-17.56062
1030.865	-25.98912
1031.031	49.88122
1031.196	70.96171
1031.361	75.17808
1031.527	58.31314
1031.692	45.6654
1031.857	58.31314
1032.023	113.12946
1032.188	37.23403
1032.353	119.45538
1032.518	58.31314
1032.684	33.01848
1032.849	7.72721
1033.014	28.80304
1033.179	3.51233
1033.344	35.12624
1033.509	24.58768
1033.674	45.6654
1033.839	-59.69913
1034.004	41.44967
1034.17	9.83468
1034.335	45.6654
1034.5	-4.91714
1034.664	-15.45344
1034.829	-70.23219
1034.994	5.61975
1035.159	-30.20322
1035.324	1.40492
1035.489	3.51233
1035.654	-13.34623
1035.819	-23.88203
1035.984	20.37242
1036.148	45.6654
1036.313	-17.56062
1036.478	-0.70246
1036.643	49.88122
1036.807	49.88122
1036.972	26.69535
1037.137	123.67278
1037.301	9.83468
1037.466	92.04447
1037.631	20.37242
1037.795	-23.88203
1037.96	-38.63112
1038.124	45.6654
1038.289	20.37242
1038.454	7.72721
1038.618	35.12624
1038.783	-17.56062
1038.947	-13.34623
1039.111	-0.70246
1039.276	35.12624
1039.44	-49.16544
1039.605	22.48004
1039.769	41.44967
1039.933	58.31314
1040.098	-59.69913
1040.262	45.6654
1040.426	3.51233
1040.591	83.6111
1040.755	28.80304
1040.919	-0.70246
1041.083	98.36974
1041.248	87.82774
1041.412	79.39455
1041.576	-23.88203
1041.74	16.15725
1041.904	41.44967
1042.068	26.69535
1042.232	1.40492
1042.397	-84.97739
1042.561	1.40492
1042.725	-68.12563
1042.889	66.74543
1043.053	-61.80579
1043.217	1.40492
1043.381	18.26482
1043.544	56.20513
1043.708	3.51233
1043.872	-0.70246
1044.036	-28.09618
1044.2	58.31314
1044.364	-0.70246
1044.528	24.58768
1044.691	-25.98912
1044.855	58.31314
1045.019	-9.13173
1045.183	87.82774
1045.346	7.72721
1045.51	56.20513
1045.674	77.2863
1045.837	14.04971
1046.001	-34.41722
1046.165	30.91075
1046.328	37.23403
1046.492	49.88122
1046.655	-4.91714
1046.819	-9.13173
1046.983	49.88122
1047.146	-7.02445
1047.31	16.15725
1047.473	-25.98912
1047.636	77.2863
1047.8	28.80304
1047.963	7.72721
1048.127	11.94218
1048.29	-13.34623
